Data from B.p.hirsuta_ven_HW_orange_left_2_Reflection__0__00.txt Node

Date: Tue Dec 13 09:36:28 EST 2022
User: abbyrobinson
Spectrometer: USB2G8287
Scans to average: 10
Trigger mode: 4
Integration Time (sec): 1.000000E-1
Electric dark correction enabled: true
Boxcar width: 5
XAxis mode: Wavelengths
Number of Pixels in Spectrum: 2048
>>>>>Begin Spectral Data<<<<<
177.272	-88.89
177.658	-23.95
178.044	-30.99
178.43	-70.27
178.816	-69.09
179.203	-101.49
179.589	30.08
179.975	80.4
180.361	135.17
180.747	105.96
181.133	89.41
181.519	-270.59
181.904	-23.95
182.29	-169.49
182.676	16600
183.062	-427.59
183.447	317.81
183.833	244.71
184.219	281.97
184.604	108.74
184.99	-124.48
185.375	-61.67
185.761	-49.62
186.146	-20.11
186.531	1.61
186.917	11
187.302	1.17
187.687	12.59
188.073	15.06
188.458	13.17
188.843	12.92
189.228	21.64
189.613	18.21
189.998	21.01
190.383	20.1
190.768	21.45
191.153	17.7
191.538	21.11
191.923	19.47
192.307	19.99
192.692	25.3
193.077	24.97
193.461	22.14
193.846	27.13
194.231	24.83
194.615	21.53
195	19.52
195.384	19.99
195.769	18.99
196.153	21.03
196.537	20.25
196.922	18.89
197.306	19.25
197.69	18.46
198.074	18.23
198.458	16.31
198.843	20.15
199.227	17.18
199.611	20.4
199.995	16.72
200.379	14.41
200.763	15.56
201.146	17.3
201.53	16.28
201.914	12.79
202.298	7.38
202.681	8.57
203.065	1.65
203.449	2.42
203.832	1.48
204.216	9.96
204.599	14.12
204.983	16.09
205.366	13.72
205.75	8.73
206.133	11.2
206.516	16.89
206.9	16.97
207.283	19.03
207.666	16.04
208.049	13.2
208.432	15.48
208.815	5.75
209.198	3.1
209.581	4.75
209.964	18.03
210.347	18.12
210.73	15.9
211.113	14.17
211.496	18.98
211.879	21.58
212.261	19.72
212.644	14.8
213.027	18.11
213.409	20.62
213.792	14.73
214.174	8.65
214.557	7.88
214.939	10.55
215.322	11.97
215.704	11.29
216.086	12.18
216.469	14.33
216.851	12.11
217.233	11.51
217.615	7.77
217.997	13.17
218.379	13.42
218.761	14.04
219.143	12.45
219.525	14.91
219.907	10.41
220.289	10.86
220.671	7.85
221.053	10.58
221.435	12.3
221.816	16
222.198	13.29
222.58	9.4
222.961	8.3
223.343	6.15
223.724	4.94
224.106	4.61
224.487	3.39
224.869	5.49
225.25	3.86
225.631	0.62
226.013	-2.44
226.394	-1.22
226.775	1.34
227.156	4.18
227.537	5.16
227.919	4.16
228.3	6.21
228.681	6.04
229.062	6.4
229.442	6.42
229.823	7.46
230.204	8.92
230.585	8.81
230.966	9.65
231.347	9.29
231.727	8.9
232.108	8.84
232.488	9.48
232.869	10.22
233.25	9.46
233.63	8.95
234.01	10.32
234.391	8.69
234.771	8.61
235.152	9.24
235.532	8.87
235.912	9.1
236.292	8.59
236.672	7.73
237.053	6.94
237.433	6.68
237.813	7.29
238.193	6.61
238.573	6.78
238.953	6.63
239.333	5.99
239.712	6.09
240.092	6.01
240.472	6.49
240.852	6.55
241.231	6.86
241.611	7.23
241.991	7
242.37	7.08
242.75	7.06
243.129	7.17
243.509	7.13
243.888	6.98
244.267	6.88
244.647	6.72
245.026	6.78
245.405	6.78
245.784	6.79
246.164	6.84
246.543	6.81
246.922	6.9
247.301	6.88
247.68	6.88
248.059	6.89
248.438	7.03
248.817	7.09
249.195	7.14
249.574	7.2
249.953	7.23
250.332	7.2
250.71	7.25
251.089	7.23
251.468	7.28
251.846	7.39
252.225	7.47
252.603	7.46
252.982	7.45
253.36	7.45
253.738	7.39
254.117	7.33
254.495	7.29
254.873	7.36
255.251	7.48
255.63	7.48
256.008	7.44
256.386	7.41
256.764	7.33
257.142	7.33
257.52	7.27
257.898	7.27
258.276	7.38
258.653	7.49
259.031	7.49
259.409	7.46
259.787	7.49
260.164	7.57
260.542	7.63
260.92	7.67
261.297	7.73
261.675	7.84
262.052	7.88
262.43	7.82
262.807	7.84
263.184	7.85
263.562	7.99
263.939	8.07
264.316	8.12
264.693	8.13
265.07	8.11
265.448	8.18
265.825	8.22
266.202	8.34
266.579	8.39
266.956	8.47
267.333	8.53
267.709	8.46
268.086	8.44
268.463	8.43
268.84	8.49
269.216	8.64
269.593	8.67
269.97	8.73
270.346	8.75
270.723	8.82
271.099	8.85
271.476	8.86
271.852	8.87
272.229	8.97
272.605	8.99
272.981	9
273.358	9.03
273.734	8.96
274.11	8.98
274.486	8.98
274.862	8.97
275.238	8.96
275.614	9.01
275.99	9.08
276.366	9.03
276.742	9.04
277.118	9.06
277.494	9.06
277.87	9.2
278.245	9.2
278.621	9.26
278.997	9.37
279.372	9.45
279.748	9.45
280.123	9.42
280.499	9.53
280.874	9.55
281.25	9.59
281.625	9.67
282	9.69
282.376	9.79
282.751	9.79
283.126	9.7
283.501	9.69
283.876	9.68
284.252	9.8
284.627	9.78
285.002	9.89
285.377	9.92
285.751	9.93
286.126	9.85
286.501	9.82
286.876	9.84
287.251	9.96
287.625	9.95
288	10.05
288.375	10.06
288.749	10.07
289.124	10.05
289.498	10.06
289.873	9.96
290.247	10.08
290.622	10.16
290.996	10.2
291.37	10.19
291.745	10.24
292.119	10.25
292.493	10.27
292.867	10.23
293.241	10.26
293.616	10.25
293.99	10.38
294.364	10.38
294.737	10.38
295.111	10.35
295.485	10.37
295.859	10.33
296.233	10.32
296.607	10.21
296.98	10.28
297.354	10.26
297.728	10.32
298.101	10.28
298.475	10.3
298.848	10.16
299.222	10.2
299.595	10.16
299.968	10.23
300.342	10.18
300.715	10.26
301.088	10.22
301.462	10.22
301.835	10.17
302.208	10.24
302.581	10.21
302.954	10.3
303.327	10.28
303.7	10.25
304.073	10.25
304.446	10.27
304.819	10.32
305.192	10.4
305.564	10.36
305.937	10.49
306.31	10.41
306.682	10.4
307.055	10.46
307.428	10.41
307.8	10.55
308.173	10.53
308.545	10.57
308.917	10.47
309.29	10.43
309.662	10.42
310.034	10.37
310.407	10.41
310.779	10.45
311.151	10.4
311.523	10.37
311.895	10.26
312.267	10.27
312.639	10.2
313.011	10.3
313.383	10.22
313.755	10.24
314.127	10.22
314.498	10.15
314.87	10.14
315.242	10.04
315.614	10.08
315.985	10.12
316.357	10.04
316.728	10.07
317.1	10.03
317.471	10.09
317.843	10.06
318.214	10
318.585	9.99
318.957	9.92
319.328	9.96
319.699	9.92
320.07	9.82
320.441	9.79
320.813	9.81
321.184	9.77
321.555	9.73
321.926	9.72
322.297	9.72
322.667	9.78
323.038	9.81
323.409	9.77
323.78	9.75
324.151	9.77
324.521	9.77
324.892	9.66
325.262	9.63
325.633	9.59
326.004	9.59
326.374	9.62
326.744	9.52
327.115	9.46
327.485	9.39
327.855	9.42
328.226	9.41
328.596	9.35
328.966	9.36
329.336	9.25
329.706	9.23
330.076	9.2
330.447	9.08
330.816	9.07
331.186	9.06
331.556	9.06
331.926	9.03
332.296	8.97
332.666	9.05
333.036	9.06
333.405	9.12
333.775	9.1
334.144	9.06
334.514	9.05
334.884	8.96
335.253	8.95
335.623	9
335.992	8.94
336.361	8.95
336.731	8.8
337.1	8.73
337.469	8.67
337.838	8.63
338.208	8.59
338.577	8.6
338.946	8.61
339.315	8.51
339.684	8.47
340.053	8.44
340.422	8.43
340.79	8.45
341.159	8.41
341.528	8.32
341.897	8.32
342.266	8.27
342.634	8.17
343.003	8.17
343.371	8.14
343.74	8.11
344.108	8.01
344.477	7.92
344.845	7.92
345.214	7.87
345.582	7.88
345.95	7.78
346.319	7.75
346.687	7.71
347.055	7.63
347.423	7.57
347.791	7.41
348.159	7.37
348.527	7.33
348.895	7.21
349.263	7.18
349.631	7.14
349.999	7.04
350.367	6.96
350.734	6.91
351.102	6.84
351.47	6.82
351.837	6.81
352.205	6.74
352.573	6.7
352.94	6.66
353.308	6.57
353.675	6.46
354.042	6.43
354.41	6.37
354.777	6.32
355.144	6.25
355.511	6.17
355.879	6.17
356.246	6.18
356.613	6.12
356.98	6.03
357.347	5.94
357.714	6
358.081	5.94
358.448	5.91
358.815	5.89
359.181	5.88
359.548	5.8
359.915	5.67
360.282	5.57
360.648	5.5
361.015	5.51
361.381	5.48
361.748	5.29
362.114	5.25
362.481	5.2
362.847	5.09
363.214	5.09
363.58	5.12
363.946	5.06
364.312	5.01
364.678	4.99
365.045	4.85
365.411	4.81
365.777	4.88
366.143	4.86
366.509	4.82
366.875	4.77
367.241	4.71
367.606	4.6
367.972	4.62
368.338	4.64
368.704	4.64
369.069	4.69
369.435	4.68
369.801	4.59
370.166	4.58
370.532	4.56
370.897	4.55
371.263	4.5
371.628	4.54
371.993	4.48
372.359	4.45
372.724	4.38
373.089	4.4
373.454	4.29
373.82	4.22
374.185	4.08
374.55	4.11
374.915	4.09
375.28	3.98
375.645	3.9
376.01	3.93
376.374	3.88
376.739	3.78
377.104	3.7
377.469	3.73
377.833	3.74
378.198	3.81
378.563	3.69
378.927	3.7
379.292	3.71
379.656	3.67
380.021	3.55
380.385	3.56
380.749	3.55
381.114	3.56
381.478	3.53
381.842	3.47
382.206	3.44
382.571	3.43
382.935	3.41
383.299	3.44
383.663	3.5
384.027	3.51
384.391	3.44
384.755	3.46
385.118	3.38
385.482	3.38
385.846	3.44
386.21	3.45
386.573	3.48
386.937	3.42
387.301	3.38
387.664	3.27
388.028	3.26
388.391	3.29
388.755	3.28
389.118	3.29
389.481	3.22
389.845	3.2
390.208	3.19
390.571	3.17
390.934	3.15
391.298	3.15
391.661	3.16
392.024	3.14
392.387	3.1
392.75	3.05
393.113	2.99
393.476	3.03
393.838	3.01
394.201	2.96
394.564	2.93
394.927	2.91
395.289	2.88
395.652	2.91
396.015	2.91
396.377	2.94
396.74	2.93
397.102	2.95
397.465	2.99
397.827	3
398.189	3.02
398.552	3.02
398.914	3.03
399.276	3.06
399.638	3
400	2.99
400.363	3
400.725	3
401.087	2.94
401.449	2.91
401.81	2.88
402.172	2.88
402.534	2.86
402.896	2.88
403.258	2.81
403.619	2.84
403.981	2.88
404.343	2.9
404.704	2.9
405.066	2.99
405.427	2.97
405.789	2.91
406.15	2.92
406.512	2.95
406.873	2.91
407.234	2.92
407.596	2.92
407.957	2.86
408.318	2.8
408.679	2.82
409.04	2.8
409.401	2.8
409.762	2.86
410.123	2.78
410.484	2.7
410.845	2.72
411.206	2.77
411.567	2.78
411.927	2.78
412.288	2.76
412.649	2.79
413.009	2.75
413.37	2.74
413.731	2.63
414.091	2.66
414.452	2.69
414.812	2.67
415.172	2.68
415.533	2.68
415.893	2.68
416.253	2.67
416.613	2.64
416.974	2.66
417.334	2.72
417.694	2.82
418.054	2.88
418.414	2.91
418.774	2.94
419.134	2.89
419.494	2.81
419.853	2.81
420.213	2.85
420.573	2.79
420.933	2.79
421.292	2.76
421.652	2.72
422.011	2.63
422.371	2.57
422.73	2.52
423.09	2.57
423.449	2.64
423.809	2.67
424.168	2.66
424.527	2.65
424.887	2.63
425.246	2.59
425.605	2.61
425.964	2.64
426.323	2.67
426.682	2.71
427.041	2.68
427.4	2.62
427.759	2.55
428.118	2.54
428.477	2.57
428.835	2.6
429.194	2.64
429.553	2.65
429.911	2.63
430.27	2.64
430.629	2.6
430.987	2.62
431.346	2.69
431.704	2.72
432.062	2.72
432.421	2.74
432.779	2.76
433.137	2.77
433.496	2.73
433.854	2.78
434.212	2.78
434.57	2.82
434.928	2.78
435.286	2.79
435.644	2.82
436.002	2.85
436.36	2.84
436.718	2.78
437.075	2.77
437.433	2.8
437.791	2.78
438.149	2.76
438.506	2.78
438.864	2.81
439.221	2.75
439.579	2.75
439.936	2.73
440.294	2.69
440.651	2.71
441.009	2.67
441.366	2.65
441.723	2.67
442.08	2.71
442.437	2.66
442.795	2.7
443.152	2.74
443.509	2.73
443.866	2.75
444.223	2.79
444.58	2.84
444.936	2.89
445.293	2.92
445.65	2.93
446.007	2.92
446.363	2.98
446.72	2.98
447.077	3
447.433	3.01
447.79	3.01
448.146	3.01
448.503	2.94
448.859	2.93
449.215	2.89
449.572	2.91
449.928	2.85
450.284	2.84
450.641	2.81
450.997	2.81
451.353	2.77
451.709	2.8
452.065	2.81
452.421	2.86
452.777	2.9
453.133	2.93
453.488	2.83
453.844	2.85
454.2	2.85
454.556	2.86
454.911	2.88
455.267	2.88
455.623	2.88
455.978	2.89
456.334	2.89
456.689	2.87
457.045	2.89
457.4	2.99
457.755	3.03
458.111	3
458.466	3.03
458.821	3.01
459.176	3.12
459.531	3.15
459.886	3.2
460.242	3.25
460.597	3.24
460.951	3.29
461.306	3.31
461.661	3.41
462.016	3.46
462.371	3.46
462.726	3.49
463.08	3.46
463.435	3.49
463.79	3.48
464.144	3.49
464.499	3.57
464.853	3.54
465.208	3.49
465.562	3.39
465.916	3.42
466.271	3.46
466.625	3.41
466.979	3.46
467.333	3.43
467.688	3.39
468.042	3.41
468.396	3.4
468.75	3.47
469.104	3.52
469.458	3.59
469.811	3.59
470.165	3.53
470.519	3.61
470.873	3.54
471.227	3.61
471.58	3.64
471.934	3.61
472.287	3.57
472.641	3.52
472.995	3.55
473.348	3.6
473.701	3.66
474.055	3.71
474.408	3.75
474.761	3.82
475.115	3.79
475.468	3.86
475.821	3.86
476.174	3.91
476.527	3.96
476.88	3.91
477.233	3.93
477.586	3.92
477.939	3.96
478.292	3.98
478.645	3.91
478.998	3.87
479.35	3.79
479.703	3.85
480.056	3.88
480.408	3.88
480.761	3.94
481.113	3.89
481.466	3.85
481.818	3.87
482.171	3.81
482.523	3.85
482.875	3.91
483.228	3.92
483.58	3.89
483.932	3.84
484.284	3.83
484.636	3.84
484.988	3.91
485.34	4.02
485.692	4.03
486.044	4.07
486.396	4.07
486.748	4.08
487.1	4.15
487.451	4.17
487.803	4.2
488.155	4.2
488.506	4.21
488.858	4.22
489.209	4.18
489.561	4.19
489.912	4.21
490.264	4.23
490.615	4.22
490.966	4.21
491.318	4.26
491.669	4.33
492.02	4.39
492.371	4.4
492.722	4.41
493.073	4.47
493.424	4.48
493.775	4.5
494.126	4.54
494.477	4.6
494.828	4.63
495.179	4.61
495.53	4.59
495.88	4.65
496.231	4.69
496.582	4.74
496.932	4.73
497.283	4.73
497.633	4.75
497.984	4.81
498.334	4.84
498.684	4.85
499.035	4.88
499.385	4.93
499.735	4.94
500.086	4.96
500.436	4.93
500.786	4.98
501.136	5.09
501.486	5.11
501.836	5.15
502.186	5.17
502.536	5.29
502.886	5.37
503.235	5.47
503.585	5.56
503.935	5.61
504.285	5.72
504.634	5.79
504.984	5.84
505.333	5.88
505.683	5.92
506.032	6.03
506.382	6.06
506.731	6.07
507.08	6.08
507.43	6.07
507.779	6.15
508.128	6.22
508.477	6.26
508.826	6.3
509.176	6.44
509.525	6.51
509.874	6.53
510.222	6.59
510.571	6.68
510.92	6.7
511.269	6.83
511.618	6.85
511.967	6.85
512.315	6.91
512.664	7.03
513.012	7.03
513.361	7.07
513.71	7.14
514.058	7.17
514.406	7.2
514.755	7.28
515.103	7.31
515.451	7.38
515.8	7.47
516.148	7.61
516.496	7.62
516.844	7.68
517.192	7.76
517.54	7.83
517.888	7.9
518.236	8.04
518.584	8.1
518.932	8.16
519.28	8.24
519.628	8.27
519.975	8.34
520.323	8.41
520.671	8.52
521.018	8.56
521.366	8.61
521.713	8.7
522.061	8.76
522.408	8.85
522.756	9.02
523.103	9.19
523.45	9.3
523.798	9.36
524.145	9.5
524.492	9.61
524.839	9.82
525.186	9.9
525.533	9.96
525.88	10.09
526.227	10.17
526.574	10.23
526.921	10.31
527.268	10.39
527.615	10.51
527.961	10.55
528.308	10.64
528.655	10.68
529.001	10.89
529.348	11.04
529.694	11.16
530.041	11.34
530.387	11.43
530.734	11.54
531.08	11.62
531.426	11.81
531.773	12.01
532.119	12.13
532.465	12.26
532.811	12.33
533.157	12.46
533.503	12.49
533.849	12.62
534.195	12.77
534.541	12.87
534.887	13.16
535.233	13.18
535.579	13.29
535.924	13.39
536.27	13.56
536.616	13.69
536.961	13.78
537.307	13.96
537.652	14.09
537.998	14.2
538.343	14.3
538.689	14.25
539.034	14.45
539.379	14.51
539.725	14.64
540.07	14.76
540.415	14.93
540.76	15.12
541.105	15.31
541.45	15.42
541.795	15.55
542.14	15.75
542.485	15.99
542.83	16.13
543.175	16.35
543.519	16.57
543.864	16.68
544.209	16.87
544.554	17.03
544.898	17.1
545.243	17.25
545.587	17.38
545.932	17.49
546.276	17.65
546.621	17.79
546.965	17.91
547.309	18.03
547.653	18.16
547.998	18.21
548.342	18.3
548.686	18.51
549.03	18.69
549.374	18.82
549.718	19.01
550.062	19.13
550.406	19.27
550.75	19.49
551.094	19.62
551.437	19.75
551.781	19.9
552.125	20.06
552.468	20.2
552.812	20.32
553.156	20.5
553.499	20.71
553.843	20.81
554.186	20.93
554.529	21.01
554.873	21.17
555.216	21.34
555.559	21.48
555.902	21.64
556.246	21.77
556.589	22.01
556.932	22.09
557.275	22.16
557.618	22.38
557.961	22.62
558.304	22.72
558.646	22.94
558.989	23.15
559.332	23.38
559.675	23.58
560.017	23.76
560.36	23.83
560.703	24.11
561.045	24.29
561.388	24.47
561.73	24.56
562.073	24.78
562.415	24.82
562.757	24.97
563.1	25.16
563.442	25.24
563.784	25.37
564.126	25.5
564.468	25.67
564.81	25.77
565.152	25.87
565.494	25.99
565.836	26.14
566.178	26.39
566.52	26.52
566.862	26.61
567.204	26.85
567.545	27.02
567.887	27.26
568.229	27.41
568.57	27.63
568.912	27.85
569.253	28.07
569.595	28.26
569.936	28.41
570.277	28.6
570.619	28.81
570.96	29
571.301	29.22
571.642	29.32
571.984	29.46
572.325	29.61
572.666	29.73
573.007	29.84
573.348	30
573.689	30.16
574.03	30.29
574.37	30.42
574.711	30.48
575.052	30.59
575.393	30.72
575.733	30.79
576.074	30.92
576.414	31.01
576.755	31.16
577.095	31.25
577.436	31.32
577.776	31.43
578.117	31.58
578.457	31.7
578.797	31.81
579.137	31.95
579.478	32.11
579.818	32.18
580.158	32.29
580.498	32.4
580.838	32.52
581.178	32.69
581.518	32.8
581.858	32.89
582.197	33.01
582.537	33.12
582.877	33.21
583.217	33.3
583.556	33.42
583.896	33.54
584.235	33.63
584.575	33.71
584.914	33.79
585.254	33.89
585.593	34
585.933	34.15
586.272	34.26
586.611	34.33
586.95	34.48
587.289	34.62
587.629	34.74
587.968	34.89
588.307	35
588.646	35.13
588.985	35.27
589.323	35.37
589.662	35.45
590.001	35.55
590.34	35.71
590.679	35.82
591.017	35.9
591.356	36.03
591.695	36.11
592.033	36.29
592.372	36.4
592.71	36.54
593.048	36.71
593.387	36.83
593.725	36.95
594.063	37.02
594.402	37.08
594.74	37.2
595.078	37.25
595.416	37.4
595.754	37.48
596.092	37.53
596.43	37.59
596.768	37.66
597.106	37.73
597.444	37.81
597.781	37.88
598.119	38.01
598.457	38.1
598.795	38.22
599.132	38.33
599.47	38.36
599.807	38.5
600.145	38.6
600.482	38.66
600.82	38.81
601.157	38.91
601.494	39.03
601.831	39.08
602.169	39.12
602.506	39.2
602.843	39.27
603.18	39.39
603.517	39.5
603.854	39.51
604.191	39.57
604.528	39.64
604.865	39.72
605.202	39.79
605.538	39.94
605.875	40.13
606.212	40.23
606.548	40.3
606.885	40.45
607.222	40.53
607.558	40.69
607.895	40.79
608.231	40.87
608.567	40.95
608.904	41.05
609.24	41.19
609.576	41.23
609.912	41.35
610.248	41.46
610.585	41.53
610.921	41.62
611.257	41.7
611.593	41.85
611.929	41.95
612.264	42.14
612.6	42.24
612.936	42.31
613.272	42.35
613.608	42.46
613.943	42.58
614.279	42.66
614.614	42.76
614.95	42.87
615.285	42.98
615.621	43.04
615.956	43.1
616.292	43.2
616.627	43.24
616.962	43.46
617.297	43.59
617.632	43.71
617.968	43.81
618.303	43.81
618.638	43.91
618.973	43.95
619.308	44.06
619.643	44.08
619.977	44.18
620.312	44.36
620.647	44.23
620.982	44.28
621.316	44.31
621.651	44.34
621.986	44.53
622.32	44.57
622.655	44.65
622.989	44.82
623.324	45.04
623.658	45.2
623.992	45.22
624.326	45.47
624.661	45.52
624.995	45.55
625.329	45.73
625.663	45.75
625.997	45.85
626.331	45.97
626.665	46.05
626.999	46.09
627.333	46.01
627.667	46.09
628.001	46.12
628.334	46.13
628.668	46.18
629.002	46.32
629.335	46.4
629.669	46.49
630.002	46.62
630.336	46.55
630.669	46.55
631.003	46.71
631.336	46.69
631.669	46.81
632.003	47.05
632.336	47.23
632.669	47.22
633.002	47.42
633.335	47.6
633.668	47.59
634.001	47.86
634.334	48.08
634.667	48.14
635	48.4
635.333	48.49
635.665	48.5
635.998	48.55
636.331	48.67
636.663	48.55
636.996	48.43
637.328	48.52
637.661	48.63
637.993	48.56
638.326	48.83
638.658	48.83
638.99	48.72
639.323	48.8
639.655	48.9
639.987	48.82
640.319	49.08
640.651	49.18
640.983	49.42
641.315	49.31
641.647	49.61
641.979	49.51
642.311	49.51
642.643	49.84
642.975	50.03
643.306	50.14
643.638	50.35
643.97	50.38
644.301	50.62
644.633	50.46
644.964	50.69
645.296	50.57
645.627	50.71
645.959	50.85
646.29	50.83
646.621	50.6
646.952	50.75
647.284	50.74
647.615	50.98
647.946	51.15
648.277	51.45
648.608	51.32
648.939	51.45
649.27	51.54
649.601	51.54
649.931	51.7
650.262	51.93
650.593	52.05
650.924	51.98
651.254	51.9
651.585	51.83
651.915	51.72
652.246	51.73
652.576	51.78
652.907	51.74
653.237	51.92
653.568	51.75
653.898	51.69
654.228	51.65
654.558	51.71
654.888	51.85
655.219	52.07
655.549	52.13
655.879	52.21
656.209	52.1
656.539	51.95
656.868	51.98
657.198	51.94
657.528	51.93
657.858	51.9
658.188	51.85
658.517	51.77
658.847	51.71
659.176	51.68
659.506	51.64
659.835	51.58
660.165	51.53
660.494	51.43
660.824	51.39
661.153	51.35
661.482	51.27
661.811	51.24
662.14	51.25
662.47	51.25
662.799	51.25
663.128	51.22
663.457	51.25
663.786	51.38
664.114	51.54
664.443	51.69
664.772	51.77
665.101	52
665.43	52.21
665.758	52.48
666.087	52.68
666.415	52.8
666.744	53.16
667.072	53.56
667.401	53.82
667.729	54.29
668.058	54.45
668.386	54.55
668.714	54.77
669.042	54.87
669.371	54.69
669.699	54.75
670.027	54.61
670.355	54.86
670.683	54.8
671.011	55.07
671.339	54.91
671.666	55.01
671.994	55.16
672.322	55.13
672.65	55.16
672.977	55.36
673.305	55.36
673.633	55.85
673.96	55.79
674.288	55.9
674.615	56.11
674.943	56.46
675.27	56.65
675.597	56.59
675.924	56.49
676.252	56.56
676.579	56.44
676.906	56.53
677.233	56.3
677.56	56.46
677.887	56.42
678.214	56.43
678.541	56.32
678.868	56.09
679.195	56.37
679.521	56.79
679.848	56.76
680.175	56.72
680.501	56.83
680.828	57.06
681.154	57.04
681.481	57.4
681.807	57.51
682.134	57.5
682.46	57.54
682.787	57.39
683.113	57.45
683.439	57.5
683.765	57.49
684.091	57.7
684.417	57.75
684.743	57.56
685.069	57.51
685.395	57.56
685.721	57.93
686.047	58.07
686.373	58.09
686.699	58.05
687.024	58.32
687.35	58.51
687.676	58.36
688.001	58.29
688.327	58.55
688.652	58.55
688.978	58.36
689.303	58.34
689.629	58.43
689.954	58.7
690.279	58.78
690.604	58.81
690.93	58.84
691.255	59.07
691.58	59.36
691.905	59.47
692.23	59.42
692.555	59.8
692.88	59.73
693.204	59.66
693.529	59.59
693.854	59.58
694.179	59.45
694.503	59.54
694.828	59.78
695.153	59.63
695.477	59.53
695.802	59.6
696.126	59.28
696.451	59.21
696.775	59.47
697.099	59.54
697.423	59.53
697.748	59.74
698.072	59.87
698.396	59.42
698.72	59.52
699.044	59.59
699.368	59.54
699.692	59.79
700.016	59.81
700.34	59.82
700.664	59.7
700.987	59.93
701.311	59.85
701.635	59.72
701.958	59.67
702.282	59.94
702.606	59.88
702.929	59.93
703.252	59.9
