Data from B.p.hirsuta_ven_HW_orange_left_3_Reflection__0__07.txt Node

Date: Tue Dec 13 09:41:04 EST 2022
User: abbyrobinson
Spectrometer: USB2G8287
Scans to average: 10
Trigger mode: 4
Integration Time (sec): 1.000000E-1
Electric dark correction enabled: true
Boxcar width: 5
XAxis mode: Wavelengths
Number of Pixels in Spectrum: 2048
>>>>>Begin Spectral Data<<<<<
177.272	-66.2
177.658	-36.52
178.044	-13.02
178.43	8
178.816	35.48
179.203	8.37
179.589	21.71
179.975	24.06
180.361	31.37
180.747	75.51
181.133	179.42
181.519	-165.8
181.904	-36.52
182.29	-35.23
182.676	-2.69
183.062	67.53
183.447	-8.1
183.833	-198.13
184.219	11.43
184.604	-178.08
184.99	2141.18
185.375	132.39
185.761	265.75
186.146	-123.08
186.531	41.65
186.917	0.3
187.302	-19.17
187.687	-14.24
188.073	-13.36
188.458	-12.2
188.843	-23.86
189.228	-21.71
189.613	-7.19
189.998	2.51
190.383	-2.4
190.768	-1.72
191.153	3.77
191.538	6.13
191.923	10.99
192.307	17.24
192.692	18.92
193.077	20.01
193.461	27.07
193.846	20.18
194.231	17.97
194.615	22.89
195	20.07
195.384	17.33
195.769	19.84
196.153	21.39
196.537	21.15
196.922	17.38
197.306	22.81
197.69	15.12
198.074	16.28
198.458	8.64
198.843	8.41
199.227	6.78
199.611	12.92
199.995	14.85
200.379	11.49
200.763	13.42
201.146	18.17
201.53	15.23
201.914	18.23
202.298	15.85
202.681	12.66
203.065	0.74
203.449	5.76
203.832	4.63
204.216	4.6
204.599	11.27
204.983	10.83
205.366	11.78
205.75	9.1
206.133	5.63
206.516	2.16
206.9	11.38
207.283	17.23
207.666	9.78
208.049	-4.71
208.432	-9.16
208.815	-18.17
209.198	-16.85
209.581	-21.92
209.964	-10.16
210.347	-3.57
210.73	-4.55
211.113	-6.01
211.496	-5.76
211.879	-9.4
212.261	-6.78
212.644	-3.34
213.027	-0.93
213.409	-4.77
213.792	-8.72
214.174	-9.24
214.557	-8.66
214.939	1.87
215.322	0.97
215.704	5.25
216.086	14.27
216.469	16.68
216.851	17.02
217.233	18.61
217.615	20.67
217.997	21.27
218.379	18.13
218.761	20.4
219.143	17.82
219.525	20.17
219.907	14.1
220.289	12.78
220.671	11
221.053	5.79
221.435	4.76
221.816	6.37
222.198	4.04
222.58	0.24
222.961	0.04
223.343	0.04
223.724	-1.87
224.106	2.43
224.487	1.88
224.869	1.5
225.25	5.09
225.631	3.47
226.013	2.31
226.394	2.64
226.775	5.26
227.156	2.94
227.537	3.43
227.919	3.77
228.3	1.71
228.681	2.2
229.062	4.26
229.442	3.09
229.823	2.99
230.204	3.68
230.585	6.26
230.966	6.95
231.347	6.78
231.727	6.69
232.108	7.29
232.488	8.05
232.869	6.77
233.25	5.71
233.63	5.8
234.01	6.98
234.391	6.81
234.771	5.73
235.152	6
235.532	6.38
235.912	6.23
236.292	6.54
236.672	6.31
237.053	6.28
237.433	6.27
237.813	6.47
238.193	5.77
238.573	5.48
238.953	5.87
239.333	5.4
239.712	5.24
240.092	4.95
240.472	4.6
240.852	4.32
241.231	4.44
241.611	4.57
241.991	4.65
242.37	4.82
242.75	4.99
243.129	4.82
243.509	5.02
243.888	4.97
244.267	4.98
244.647	4.98
245.026	5.17
245.405	5.3
245.784	5.29
246.164	5.19
246.543	5.14
246.922	4.96
247.301	4.73
247.68	4.54
248.059	4.42
248.438	4.49
248.817	4.46
249.195	4.35
249.574	4.2
249.953	4.16
250.332	4.09
250.71	4.2
251.089	4.28
251.468	4.36
251.846	4.48
252.225	4.53
252.603	4.45
252.982	4.42
253.36	4.41
253.738	4.32
254.117	4.29
254.495	4.31
254.873	4.2
255.251	4.29
255.63	4.29
256.008	4.3
256.386	4.27
256.764	4.23
257.142	4.21
257.52	4.15
257.898	4.1
258.276	4.06
258.653	4.04
259.031	4.08
259.409	3.95
259.787	4.01
260.164	3.96
260.542	3.98
260.92	3.99
261.297	3.95
261.675	4.09
262.052	4.24
262.43	4.31
262.807	4.4
263.184	4.41
263.562	4.49
263.939	4.45
264.316	4.41
264.693	4.41
265.07	4.42
265.448	4.52
265.825	4.49
266.202	4.52
266.579	4.51
266.956	4.4
267.333	4.38
267.709	4.33
268.086	4.3
268.463	4.31
268.84	4.33
269.216	4.26
269.593	4.21
269.97	4.2
270.346	4.16
270.723	4.16
271.099	4.25
271.476	4.26
271.852	4.28
272.229	4.38
272.605	4.31
272.981	4.36
273.358	4.44
273.734	4.43
274.11	4.43
274.486	4.41
274.862	4.39
275.238	4.3
275.614	4.32
275.99	4.29
276.366	4.16
276.742	4.21
277.118	4.15
277.494	4.14
277.87	4.15
278.245	4.11
278.621	4.09
278.997	4.11
279.372	4.22
279.748	4.15
280.123	4.17
280.499	4.21
280.874	4.18
281.25	4.12
281.625	4.1
282	4.14
282.376	4.15
282.751	4.15
283.126	4.13
283.501	4.09
283.876	4.07
284.252	4.16
284.627	4.17
285.002	4.31
285.377	4.37
285.751	4.48
286.126	4.4
286.501	4.46
286.876	4.54
287.251	4.7
287.625	4.72
288	4.85
288.375	4.76
288.749	4.83
289.124	4.8
289.498	4.84
289.873	4.8
290.247	4.85
290.622	4.89
290.996	4.82
291.37	4.73
291.745	4.74
292.119	4.73
292.493	4.76
292.867	4.69
293.241	4.76
293.616	4.78
293.99	4.87
294.364	4.96
294.737	5.02
295.111	5.06
295.485	5.11
295.859	5.12
296.233	5.2
296.607	5.24
296.98	5.39
297.354	5.38
297.728	5.39
298.101	5.34
298.475	5.31
298.848	5.24
299.222	5.35
299.595	5.35
299.968	5.38
300.342	5.26
300.715	5.25
301.088	5.18
301.462	5.15
301.835	5.16
302.208	5.12
302.581	5.18
302.954	5.28
303.327	5.25
303.7	5.21
304.073	5.21
304.446	5.28
304.819	5.42
305.192	5.49
305.564	5.48
305.937	5.55
306.31	5.63
306.682	5.72
307.055	5.76
307.428	5.73
307.8	5.87
308.173	6
308.545	6.05
308.917	5.93
309.29	5.9
309.662	5.95
310.034	6.03
310.407	6.12
310.779	6.11
311.151	6.08
311.523	6.12
311.895	6.09
312.267	6.03
312.639	5.99
313.011	6.05
313.383	6.12
313.755	6.14
314.127	6.12
314.498	6
314.87	5.94
315.242	5.88
315.614	5.88
315.985	5.91
316.357	5.84
316.728	5.86
317.1	5.89
317.471	5.91
317.843	5.96
318.214	5.94
318.585	6
318.957	6.06
319.328	6.1
319.699	6.12
320.07	6.07
320.441	6.19
320.813	6.23
321.184	6.23
321.555	6.23
321.926	6.17
322.297	6.16
322.667	6.22
323.038	6.19
323.409	6.21
323.78	6.26
324.151	6.3
324.521	6.27
324.892	6.24
325.262	6.25
325.633	6.33
326.004	6.34
326.374	6.32
326.744	6.29
327.115	6.33
327.485	6.3
327.855	6.2
328.226	6.22
328.596	6.21
328.966	6.21
329.336	6.09
329.706	6.05
330.076	6.11
330.447	6.11
330.816	6.11
331.186	6.08
331.556	6.13
331.926	6.19
332.296	6.11
332.666	6.08
333.036	6.12
333.405	6.19
333.775	6.18
334.144	6.1
334.514	6.11
334.884	6.09
335.253	6.12
335.623	6.12
335.992	6.13
336.361	6.15
336.731	6.16
337.1	6.19
337.469	6.15
337.838	6.19
338.208	6.24
338.577	6.26
338.946	6.24
339.315	6.23
339.684	6.21
340.053	6.22
340.422	6.26
340.79	6.3
341.159	6.25
341.528	6.29
341.897	6.21
342.266	6.15
342.634	6.13
343.003	6.21
343.371	6.22
343.74	6.22
344.108	6.15
344.477	6.19
344.845	6.23
345.214	6.25
345.582	6.26
345.95	6.26
346.319	6.31
346.687	6.26
347.055	6.22
347.423	6.19
347.791	6.17
348.159	6.17
348.527	6.05
348.895	5.97
349.263	5.96
349.631	5.96
349.999	5.93
350.367	5.85
350.734	5.85
351.102	5.78
351.47	5.79
351.837	5.81
352.205	5.8
352.573	5.85
352.94	5.84
353.308	5.78
353.675	5.7
354.042	5.63
354.41	5.63
354.777	5.58
355.144	5.57
355.511	5.55
355.879	5.55
356.246	5.58
356.613	5.52
356.98	5.47
357.347	5.46
357.714	5.51
358.081	5.47
358.448	5.43
358.815	5.48
359.181	5.54
359.548	5.47
359.915	5.35
360.282	5.3
360.648	5.3
361.015	5.36
361.381	5.33
361.748	5.22
362.114	5.26
362.481	5.25
362.847	5.17
363.214	5.08
363.58	5.04
363.946	5
364.312	4.93
364.678	4.95
365.045	4.81
365.411	4.77
365.777	4.74
366.143	4.71
366.509	4.69
366.875	4.69
367.241	4.67
367.606	4.6
367.972	4.67
368.338	4.72
368.704	4.66
369.069	4.69
369.435	4.67
369.801	4.66
370.166	4.6
370.532	4.62
370.897	4.56
371.263	4.5
371.628	4.55
371.993	4.49
372.359	4.4
372.724	4.41
373.089	4.33
373.454	4.24
373.82	4.17
374.185	4.12
374.55	4.11
374.915	4.11
375.28	4.01
375.645	3.9
376.01	3.83
376.374	3.83
376.739	3.71
377.104	3.66
377.469	3.69
377.833	3.69
378.198	3.69
378.563	3.6
378.927	3.55
379.292	3.58
379.656	3.57
380.021	3.56
380.385	3.51
380.749	3.48
381.114	3.48
381.478	3.45
381.842	3.47
382.206	3.47
382.571	3.41
382.935	3.39
383.299	3.34
383.663	3.4
384.027	3.39
384.391	3.36
384.755	3.33
385.118	3.34
385.482	3.34
385.846	3.25
386.21	3.2
386.573	3.19
386.937	3.19
387.301	3.24
387.664	3.11
388.028	3.07
388.391	3.06
388.755	3.05
389.118	3.02
389.481	2.96
389.845	3.01
390.208	3.07
390.571	3.07
390.934	3
391.298	2.92
391.661	2.99
392.024	2.94
392.387	2.86
392.75	2.81
393.113	2.79
393.476	2.79
393.838	2.73
394.201	2.7
394.564	2.71
394.927	2.77
395.289	2.76
395.652	2.74
396.015	2.75
396.377	2.82
396.74	2.8
397.102	2.78
397.465	2.83
397.827	2.84
398.189	2.79
398.552	2.73
398.914	2.66
399.276	2.68
399.638	2.62
400	2.61
400.363	2.6
400.725	2.6
401.087	2.58
401.449	2.55
401.81	2.55
402.172	2.57
402.534	2.52
402.896	2.5
403.258	2.47
403.619	2.5
403.981	2.53
404.343	2.52
404.704	2.52
405.066	2.54
405.427	2.5
405.789	2.48
406.15	2.43
406.512	2.51
406.873	2.49
407.234	2.45
407.596	2.45
407.957	2.43
408.318	2.41
408.679	2.4
409.04	2.4
409.401	2.37
409.762	2.35
410.123	2.34
410.484	2.28
410.845	2.29
411.206	2.3
411.567	2.29
411.927	2.32
412.288	2.29
412.649	2.36
413.009	2.34
413.37	2.31
413.731	2.28
414.091	2.29
414.452	2.3
414.812	2.29
415.172	2.31
415.533	2.27
415.893	2.22
416.253	2.23
416.613	2.23
416.974	2.23
417.334	2.24
417.694	2.24
418.054	2.28
418.414	2.35
418.774	2.38
419.134	2.38
419.494	2.41
419.853	2.45
420.213	2.46
420.573	2.38
420.933	2.38
421.292	2.41
421.652	2.45
422.011	2.4
422.371	2.33
422.73	2.32
423.09	2.28
423.449	2.28
423.809	2.25
424.168	2.23
424.527	2.2
424.887	2.17
425.246	2.16
425.605	2.16
425.964	2.13
426.323	2.14
426.682	2.15
427.041	2.17
427.4	2.1
427.759	2.09
428.118	2.11
428.477	2.12
428.835	2.13
429.194	2.12
429.553	2.11
429.911	2.11
430.27	2.14
430.629	2.06
430.987	2.09
431.346	2.14
431.704	2.11
432.062	2.09
432.421	2.11
432.779	2.13
433.137	2.19
433.496	2.21
433.854	2.25
434.212	2.21
434.57	2.26
434.928	2.21
435.286	2.23
435.644	2.25
436.002	2.26
436.36	2.29
436.718	2.22
437.075	2.16
437.433	2.11
437.791	2.07
438.149	2.07
438.506	2.05
438.864	2.04
439.221	2.01
439.579	2.01
439.936	1.99
440.294	1.95
440.651	2
441.009	1.99
441.366	2.01
441.723	2.07
442.08	2.05
442.437	2.04
442.795	2.08
443.152	2.09
443.509	2.06
443.866	2.08
444.223	2.1
444.58	2.11
444.936	2.14
445.293	2.17
445.65	2.11
446.007	2.16
446.363	2.22
446.72	2.23
447.077	2.24
447.433	2.27
447.79	2.27
448.146	2.3
448.503	2.29
448.859	2.23
449.215	2.14
449.572	2.17
449.928	2.12
450.284	2.06
450.641	2.1
450.997	2.09
451.353	2.1
451.709	2.11
452.065	2.04
452.421	2.06
452.777	2.13
453.133	2.15
453.488	2.13
453.844	2.14
454.2	2.16
454.556	2.12
454.911	2.15
455.267	2.12
455.623	2.14
455.978	2.17
456.334	2.17
456.689	2.16
457.045	2.2
457.4	2.2
457.755	2.26
458.111	2.22
458.466	2.22
458.821	2.22
459.176	2.24
459.531	2.19
459.886	2.22
460.242	2.22
460.597	2.19
460.951	2.22
461.306	2.26
461.661	2.23
462.016	2.24
462.371	2.26
462.726	2.25
463.08	2.27
463.435	2.34
463.79	2.35
464.144	2.4
464.499	2.41
464.853	2.4
465.208	2.44
465.562	2.45
465.916	2.45
466.271	2.49
466.625	2.44
466.979	2.45
467.333	2.42
467.688	2.41
468.042	2.43
468.396	2.49
468.75	2.58
469.104	2.57
469.458	2.57
469.811	2.6
470.165	2.56
470.519	2.59
470.873	2.53
471.227	2.6
471.58	2.56
471.934	2.54
472.287	2.48
472.641	2.4
472.995	2.41
473.348	2.47
473.701	2.48
474.055	2.45
474.408	2.52
474.761	2.62
475.115	2.64
475.468	2.7
475.821	2.66
476.174	2.66
476.527	2.69
476.88	2.64
477.233	2.61
477.586	2.68
477.939	2.7
478.292	2.67
478.645	2.64
478.998	2.6
479.35	2.49
479.703	2.53
480.056	2.57
480.408	2.52
480.761	2.53
481.113	2.53
481.466	2.44
481.818	2.47
482.171	2.45
482.523	2.46
482.875	2.42
483.228	2.47
483.58	2.43
483.932	2.44
484.284	2.45
484.636	2.46
484.988	2.47
485.34	2.53
485.692	2.55
486.044	2.58
486.396	2.58
486.748	2.62
487.1	2.63
487.451	2.67
487.803	2.68
488.155	2.7
488.506	2.71
488.858	2.71
489.209	2.71
489.561	2.72
489.912	2.75
490.264	2.77
490.615	2.76
490.966	2.76
491.318	2.76
491.669	2.79
492.02	2.82
492.371	2.8
492.722	2.82
493.073	2.86
493.424	2.91
493.775	2.91
494.126	2.91
494.477	2.96
494.828	3.01
495.179	2.99
495.53	2.95
495.88	2.98
496.231	3.1
496.582	3.16
496.932	3.19
497.283	3.16
497.633	3.16
497.984	3.23
498.334	3.25
498.684	3.26
499.035	3.33
499.385	3.43
499.735	3.47
500.086	3.44
500.436	3.42
500.786	3.4
501.136	3.4
501.486	3.42
501.836	3.41
502.186	3.44
502.536	3.51
502.886	3.53
503.235	3.5
503.585	3.49
503.935	3.55
504.285	3.62
504.634	3.72
504.984	3.8
505.333	3.84
505.683	3.84
506.032	3.86
506.382	3.87
506.731	3.88
507.08	3.93
507.43	4
507.779	4.01
508.128	4.01
508.477	4
508.826	4.01
509.176	4.09
509.525	4.16
509.874	4.21
510.222	4.3
510.571	4.41
510.92	4.43
511.269	4.48
511.618	4.53
511.967	4.62
512.315	4.67
512.664	4.69
513.012	4.71
513.361	4.76
513.71	4.85
514.058	4.86
514.406	4.85
514.755	4.84
515.103	4.86
515.451	4.89
515.8	4.9
516.148	4.94
516.496	5.02
516.844	5.04
517.192	5.11
517.54	5.15
517.888	5.15
518.236	5.27
518.584	5.41
518.932	5.5
519.28	5.58
519.628	5.61
519.975	5.67
520.323	5.74
520.671	5.87
521.018	5.92
521.366	5.93
521.713	6.04
522.061	6.06
522.408	6.11
522.756	6.13
523.103	6.22
523.45	6.37
523.798	6.43
524.145	6.48
524.492	6.5
524.839	6.63
525.186	6.69
525.533	6.68
525.88	6.73
526.227	6.78
526.574	6.85
526.921	6.93
527.268	6.98
527.615	7.09
527.961	7.22
528.308	7.34
528.655	7.39
529.001	7.53
529.348	7.73
529.694	7.85
530.041	7.96
530.387	8.08
530.734	8.13
531.08	8.18
531.426	8.29
531.773	8.32
532.119	8.39
532.465	8.46
532.811	8.57
533.157	8.63
533.503	8.7
533.849	8.83
534.195	8.9
534.541	8.97
534.887	9.13
535.233	9.18
535.579	9.27
535.924	9.33
536.27	9.35
536.616	9.39
536.961	9.47
537.307	9.61
537.652	9.64
537.998	9.75
538.343	9.84
538.689	9.94
539.034	10.06
539.379	10.23
539.725	10.34
540.07	10.56
540.415	10.76
540.76	10.93
541.105	11.02
541.45	11.18
541.795	11.37
542.14	11.5
542.485	11.59
542.83	11.67
543.175	11.73
543.519	11.89
543.864	11.99
544.209	12.06
544.554	12.22
544.898	12.42
545.243	12.52
545.587	12.59
545.932	12.71
546.276	12.88
546.621	13.01
546.965	13.09
547.309	13.18
547.653	13.31
547.998	13.43
548.342	13.44
548.686	13.48
549.03	13.61
549.374	13.72
549.718	13.88
550.062	14
550.406	14.17
550.75	14.41
551.094	14.56
551.437	14.65
551.781	14.73
552.125	14.87
552.468	15.05
552.812	15.15
553.156	15.23
553.499	15.34
553.843	15.34
554.186	15.46
554.529	15.54
554.873	15.64
555.216	15.77
555.559	15.92
555.902	16.09
556.246	16.23
556.589	16.4
556.932	16.53
557.275	16.66
557.618	16.91
557.961	17.09
558.304	17.17
558.646	17.37
558.989	17.55
559.332	17.8
559.675	17.93
560.017	17.95
560.36	18.09
560.703	18.27
561.045	18.43
561.388	18.59
561.73	18.65
562.073	18.84
562.415	19.01
562.757	19.12
563.1	19.21
563.442	19.34
563.784	19.54
564.126	19.73
564.468	19.94
564.81	20.08
565.152	20.2
565.494	20.28
565.836	20.44
566.178	20.44
566.52	20.54
566.862	20.64
567.204	20.77
567.545	20.94
567.887	20.95
568.229	21.1
568.57	21.2
568.912	21.19
569.253	21.44
569.595	21.59
569.936	21.83
570.277	21.96
570.619	22.07
570.96	22.24
571.301	22.38
571.642	22.59
571.984	22.67
572.325	22.83
572.666	23.05
573.007	23.15
573.348	23.25
573.689	23.3
574.03	23.43
574.37	23.61
574.711	23.73
575.052	23.8
575.393	23.87
575.733	24.01
576.074	24.11
576.414	24.2
576.755	24.29
577.095	24.4
577.436	24.55
577.776	24.68
578.117	24.78
578.457	24.85
578.797	25
579.137	25.13
579.478	25.2
579.818	25.32
580.158	25.42
580.498	25.52
580.838	25.66
581.178	25.73
581.518	25.86
581.858	25.97
582.197	26.07
582.537	26.17
582.877	26.27
583.217	26.42
583.556	26.51
583.896	26.62
584.235	26.73
584.575	26.8
584.914	26.92
585.254	26.98
585.593	27.05
585.933	27.17
586.272	27.3
586.611	27.37
586.95	27.46
587.289	27.59
587.629	27.68
587.968	27.8
588.307	27.94
588.646	28.04
588.985	28.18
589.323	28.36
589.662	28.46
590.001	28.56
590.34	28.73
590.679	28.82
591.017	28.91
591.356	29
591.695	29.15
592.033	29.23
592.372	29.38
592.71	29.53
593.048	29.6
593.387	29.76
593.725	29.84
594.063	29.94
594.402	30.06
594.74	30.2
595.078	30.39
595.416	30.44
595.754	30.58
596.092	30.66
596.43	30.76
596.768	30.84
597.106	30.88
597.444	31.01
597.781	31.12
598.119	31.22
598.457	31.37
598.795	31.46
599.132	31.58
599.47	31.71
599.807	31.83
600.145	31.93
600.482	32.09
600.82	32.2
601.157	32.36
601.494	32.48
601.831	32.55
602.169	32.59
602.506	32.64
602.843	32.73
603.18	32.79
603.517	32.85
603.854	32.97
604.191	33.02
604.528	33.13
604.865	33.16
605.202	33.21
605.538	33.36
605.875	33.48
606.212	33.63
606.548	33.75
606.885	33.84
607.222	34
607.558	34.07
607.895	34.17
608.231	34.28
608.567	34.42
608.904	34.47
609.24	34.56
609.576	34.64
609.912	34.75
610.248	34.8
610.585	34.91
610.921	34.94
611.257	35.02
611.593	35.13
611.929	35.24
612.264	35.28
612.6	35.41
612.936	35.45
613.272	35.5
613.608	35.6
613.943	35.73
614.279	35.88
614.614	36.02
614.95	36.09
615.285	36.15
615.621	36.3
615.956	36.45
616.292	36.5
616.627	36.62
616.962	36.69
617.297	36.77
617.632	36.87
617.968	36.94
618.303	37.03
618.638	37.17
618.973	37.31
619.308	37.35
619.643	37.38
619.977	37.53
620.312	37.61
620.647	37.71
620.982	37.79
621.316	37.89
621.651	37.92
621.986	37.94
622.32	38.02
622.655	38.12
622.989	38.18
623.324	38.35
623.658	38.46
623.992	38.5
624.326	38.51
624.661	38.57
624.995	38.58
625.329	38.65
625.663	38.73
625.997	38.7
626.331	38.7
626.665	38.72
626.999	38.74
627.333	38.75
627.667	38.86
628.001	39.03
628.334	39.12
628.668	39.24
629.002	39.39
629.335	39.5
629.669	39.77
630.002	39.83
630.336	39.96
630.669	40.03
631.003	40.11
631.336	40.18
631.669	40.27
632.003	40.27
632.336	40.34
632.669	40.27
633.002	40.46
633.335	40.47
633.668	40.42
634.001	40.62
634.334	40.69
634.667	40.8
635	40.87
635.333	40.83
635.665	40.95
635.998	40.95
636.331	41.26
636.663	41.27
636.996	41.27
637.328	41.43
637.661	41.28
637.993	41.37
638.326	41.38
638.658	41.58
638.99	41.85
639.323	42.01
639.655	42.17
639.987	42.12
640.319	42.19
640.651	42.3
640.983	42.61
641.315	42.77
641.647	42.76
641.979	42.9
642.311	43.06
642.643	43.12
642.975	43.13
643.306	43
643.638	43.03
643.97	42.92
644.301	43.05
644.633	43
644.964	43.2
645.296	43.59
645.627	43.53
645.959	43.34
646.29	43.27
646.621	43.37
646.952	43.55
647.284	43.83
647.615	44.11
647.946	44.22
648.277	44.34
648.608	44.4
648.939	44.34
649.27	44.53
649.601	44.75
649.931	44.91
650.262	45.07
650.593	45.17
650.924	44.97
651.254	45
651.585	44.95
651.915	44.97
652.246	44.73
652.576	44.66
652.907	44.98
653.237	44.88
653.568	44.79
653.898	44.84
654.228	45.04
654.558	45.12
654.888	45.17
655.219	45.38
655.549	45.8
655.879	46.2
656.209	46.44
656.539	46.41
656.868	46.53
657.198	46.73
657.528	46.81
657.858	46.88
658.188	46.92
658.517	46.93
658.847	46.99
659.176	47.05
659.506	47.08
659.835	47.1
660.165	47.17
660.494	47.22
660.824	47.22
661.153	47.25
661.482	47.29
661.811	47.33
662.14	47.44
662.47	47.48
662.799	47.47
663.128	47.54
663.457	47.62
663.786	47.65
664.114	47.72
664.443	47.76
664.772	47.8
665.101	47.69
665.43	47.75
665.758	47.58
666.087	47.47
666.415	47.61
666.744	47.7
667.072	47.98
667.401	48.29
667.729	48.16
668.058	48.62
668.386	48.59
668.714	48.92
669.042	49.27
669.371	49.29
669.699	49.42
670.027	49.46
670.355	49.44
670.683	49.19
671.011	49.13
671.339	49.27
671.666	49.28
671.994	49.41
672.322	49.69
672.65	49.6
672.977	49.62
673.305	49.54
673.633	49.47
673.96	49.12
674.288	49.12
674.615	49.23
674.943	49.58
675.27	49.75
675.597	50.06
675.924	50.13
676.252	50.15
676.579	50.48
676.906	50.63
677.233	50.55
677.56	50.95
677.887	51.13
678.214	51.39
678.541	51.39
678.868	51.27
679.195	51.05
679.521	50.91
679.848	50.83
680.175	50.66
680.501	50.75
680.828	51.04
681.154	51.16
681.481	51.51
681.807	51.48
682.134	51.51
682.46	51.58
682.787	51.55
683.113	51.75
683.439	52.04
683.765	52.09
684.091	51.96
684.417	52.29
684.743	52.1
685.069	52.08
685.395	52.17
685.721	52.41
686.047	52.58
686.373	52.83
686.699	52.79
687.024	52.93
687.35	53.02
687.676	53.34
688.001	53.22
688.327	53.18
688.652	53.09
688.978	53.13
689.303	53.05
689.629	53.05
689.954	53.28
690.279	53.23
690.604	53.07
690.93	52.9
691.255	52.99
691.58	52.91
691.905	53.09
692.23	53.15
692.555	53.15
692.88	53.15
693.204	53.16
693.529	53.1
693.854	53.12
694.179	53.24
694.503	53.55
694.828	53.52
695.153	53.66
695.477	53.9
695.802	54.1
696.126	54.17
696.451	54.26
696.775	54.38
697.099	54.31
697.423	54.59
697.748	54.75
698.072	54.54
698.396	54.68
698.72	54.64
699.044	54.37
699.368	54.29
699.692	54.34
700.016	54.09
700.34	54.06
700.664	54.1
700.987	54.29
701.311	53.87
701.635	54.34
701.958	54.01
702.282	54.12
702.606	54.01
702.929	54.06
703.252	54.01
703.576	54.28
703.899	54.15
704.223	54.23
704.546	53.99
704.869	54.53
705.192	54.47
705.515	54.5
705.838	54.44
706.161	54.99
706.484	55.07
