Data from battus_ven_HW_orange_right_8_Reflection__0__145.txt Node

Date: Mon Dec 12 12:16:05 EST 2022
User: abbyrobinson
Spectrometer: USB2G8287
Scans to average: 10
Trigger mode: 4
Integration Time (sec): 1.000000E-1
Electric dark correction enabled: true
Boxcar width: 5
XAxis mode: Wavelengths
Number of Pixels in Spectrum: 2048
>>>>>Begin Spectral Data<<<<<
177.272	95.39
177.658	90.28
178.044	88.34
178.43	92.14
178.816	86.89
179.203	90.3
179.589	114
179.975	106.59
180.361	108.58
180.747	100.92
181.133	109.97
181.519	98.64
181.904	90.28
182.29	84.13
182.676	94.6
183.062	103.61
183.447	114.96
183.833	108.81
184.219	111.87
184.604	134.31
184.99	300.26
185.375	-2029.29
185.761	-456.05
186.146	-120.28
186.531	-89.06
186.917	-97.31
187.302	-58.84
187.687	-46.38
188.073	-49.67
188.458	-55.3
188.843	-55.36
189.228	-59.44
189.613	-78.95
189.998	-57.72
190.383	-67.55
190.768	-83.17
191.153	-66.13
191.538	-50.17
191.923	-36.39
192.307	-45.37
192.692	-32.72
193.077	-47.07
193.461	-54.99
193.846	-35.48
194.231	-33.54
194.615	-38.37
195	-24.38
195.384	-42.21
195.769	-47.47
196.153	-52.71
196.537	-35.94
196.922	-37.19
197.306	-19.97
197.69	-21.03
198.074	-28.02
198.458	-37.89
198.843	-35.67
199.227	-31.05
199.611	-30.79
199.995	-27.9
200.379	-32.99
200.763	-39.11
201.146	-34.47
201.53	-51.51
201.914	-42.96
202.298	-35.39
202.681	-31.23
203.065	-25.09
203.449	-27.83
203.832	-18.53
204.216	-26.5
204.599	48.47
204.983	50.87
205.366	49.09
205.75	47.75
206.133	46.57
206.516	46.19
206.9	44.85
207.283	41.94
207.666	42.39
208.049	44.86
208.432	48.72
208.815	-24.61
209.198	-50.6
209.581	-47.92
209.964	-30.19
210.347	-29.36
210.73	-25.47
211.113	-27.48
211.496	-13.76
211.879	-14.46
212.261	-26.39
212.644	-29.18
213.027	-31.31
213.409	-25.74
213.792	-31.26
214.174	-35.85
214.557	-27.36
214.939	-29.86
215.322	-27.19
215.704	-34.96
216.086	-29.2
216.469	-20.53
216.851	-27.63
217.233	-32.47
217.615	-28.19
217.997	-23.81
218.379	-15.81
218.761	-19.97
219.143	-11.32
219.525	-13.82
219.907	-11.08
220.289	-7.27
220.671	-13.48
221.053	-10.76
221.435	-10.32
221.816	-9.97
222.198	-13.37
222.58	-17.06
222.961	-15.85
223.343	-20.46
223.724	-15.99
224.106	-22.28
224.487	-32.07
224.869	-28.67
225.25	-33.57
225.631	-32.88
226.013	-29.7
226.394	-26.38
226.775	-24.9
227.156	-25.61
227.537	-27.07
227.919	-29.65
228.3	-21.21
228.681	-16.62
229.062	-16.19
229.442	-13.22
229.823	-10.92
230.204	-10.57
230.585	-9.87
230.966	-8.61
231.347	-9.96
231.727	-8.83
232.108	-7.87
232.488	-7.52
232.869	-6.36
233.25	-5.31
233.63	-4.17
234.01	-3.17
234.391	-2.65
234.771	-1.13
235.152	0.32
235.532	0.79
235.912	2.28
236.292	3.1
236.672	3.23
237.053	4.06
237.433	4.8
237.813	5.09
238.193	5.12
238.573	5.35
238.953	5.64
239.333	5.3
239.712	5.79
240.092	6.12
240.472	6.17
240.852	6.5
241.231	6.71
241.611	6.89
241.991	6.95
242.37	7.33
242.75	7.57
243.129	7.49
243.509	7.96
243.888	8.11
244.267	8.06
244.647	8.3
245.026	8.28
245.405	8.08
245.784	8.01
246.164	7.94
246.543	8.01
246.922	7.81
247.301	8.05
247.68	8
248.059	8.24
248.438	8.42
248.817	8.28
249.195	8.31
249.574	8.35
249.953	8.41
250.332	8.59
250.71	8.65
251.089	9.04
251.468	9.01
251.846	8.96
252.225	8.83
252.603	8.76
252.982	8.84
253.36	8.84
253.738	8.87
254.117	8.86
254.495	8.82
254.873	8.71
255.251	8.52
255.63	8.55
256.008	8.53
256.386	8.47
256.764	8.42
257.142	8.46
257.52	8.48
257.898	8.54
258.276	8.51
258.653	8.57
259.031	8.56
259.409	8.55
259.787	8.48
260.164	8.52
260.542	8.49
260.92	8.5
261.297	8.49
261.675	8.44
262.052	8.43
262.43	8.49
262.807	8.41
263.184	8.32
263.562	8.35
263.939	8.27
264.316	8.21
264.693	8.25
265.07	8.17
265.448	8.12
265.825	8.1
266.202	8.02
266.579	8.01
266.956	8.05
267.333	8.13
267.709	8.1
268.086	8.11
268.463	8.11
268.84	8.11
269.216	8.16
269.593	8.07
269.97	8.05
270.346	7.99
270.723	7.91
271.099	7.83
271.476	7.74
271.852	7.68
272.229	7.69
272.605	7.7
272.981	7.63
273.358	7.6
273.734	7.62
274.11	7.63
274.486	7.71
274.862	7.78
275.238	7.77
275.614	7.8
275.99	7.73
276.366	7.71
276.742	7.64
277.118	7.59
277.494	7.61
277.87	7.69
278.245	7.7
278.621	7.59
278.997	7.52
279.372	7.56
279.748	7.61
280.123	7.68
280.499	7.63
280.874	7.75
281.25	7.72
281.625	7.63
282	7.54
282.376	7.5
282.751	7.48
283.126	7.5
283.501	7.48
283.876	7.4
284.252	7.47
284.627	7.46
285.002	7.38
285.377	7.44
285.751	7.53
286.126	7.56
286.501	7.6
286.876	7.64
287.251	7.6
287.625	7.61
288	7.63
288.375	7.58
288.749	7.6
289.124	7.63
289.498	7.66
289.873	7.51
290.247	7.53
290.622	7.4
290.996	7.48
291.37	7.44
291.745	7.33
292.119	7.32
292.493	7.36
292.867	7.38
293.241	7.34
293.616	7.37
293.99	7.51
294.364	7.48
294.737	7.56
295.111	7.45
295.485	7.44
295.859	7.57
296.233	7.56
296.607	7.48
296.98	7.52
297.354	7.48
297.728	7.45
298.101	7.34
298.475	7.29
298.848	7.31
299.222	7.35
299.595	7.33
299.968	7.19
300.342	7.18
300.715	7.26
301.088	7.19
301.462	7.25
301.835	7.17
302.208	7.2
302.581	7.26
302.954	7.21
303.327	7.2
303.7	7.28
304.073	7.45
304.446	7.49
304.819	7.45
305.192	7.41
305.564	7.39
305.937	7.53
306.31	7.54
306.682	7.52
307.055	7.51
307.428	7.49
307.8	7.35
308.173	7.25
308.545	7.21
308.917	7.11
309.29	7.12
309.662	7.02
310.034	7.01
310.407	6.9
310.779	6.79
311.151	6.79
311.523	6.82
311.895	6.95
312.267	6.94
312.639	6.85
313.011	6.87
313.383	6.85
313.755	6.84
314.127	6.67
314.498	6.76
314.87	6.69
315.242	6.72
315.614	6.62
315.985	6.47
316.357	6.42
316.728	6.49
317.1	6.44
317.471	6.44
317.843	6.47
318.214	6.4
318.585	6.28
318.957	6.38
319.328	6.35
319.699	6.31
320.07	6.32
320.441	6.35
320.813	6.34
321.184	6.35
321.555	6.32
321.926	6.38
322.297	6.44
322.667	6.53
323.038	6.48
323.409	6.53
323.78	6.46
324.151	6.5
324.521	6.42
324.892	6.36
325.262	6.33
325.633	6.27
326.004	6.19
326.374	6.17
326.744	6.04
327.115	5.99
327.485	5.81
327.855	5.9
328.226	5.84
328.596	5.83
328.966	5.87
329.336	5.78
329.706	5.77
330.076	5.65
330.447	5.65
330.816	5.67
331.186	5.72
331.556	5.75
331.926	5.76
332.296	5.75
332.666	5.79
333.036	5.6
333.405	5.65
333.775	5.63
334.144	5.62
334.514	5.56
334.884	5.49
335.253	5.41
335.623	5.39
335.992	5.3
336.361	5.3
336.731	5.24
337.1	5.26
337.469	5.2
337.838	5.12
338.208	5.16
338.577	5.19
338.946	5.2
339.315	5.23
339.684	5.22
340.053	5.21
340.422	5.15
340.79	5.06
341.159	4.97
341.528	4.92
341.897	4.88
342.266	4.88
342.634	4.73
343.003	4.76
343.371	4.62
343.74	4.5
344.108	4.44
344.477	4.37
344.845	4.38
345.214	4.41
345.582	4.47
345.95	4.49
346.319	4.39
346.687	4.37
347.055	4.31
347.423	4.34
347.791	4.26
348.159	4.21
348.527	4.29
348.895	4.27
349.263	4.34
349.631	4.27
349.999	4.24
350.367	4.24
350.734	4.12
351.102	4.08
351.47	4.04
351.837	4.12
352.205	4.13
352.573	3.98
352.94	4.07
353.308	3.96
353.675	3.89
354.042	3.88
354.41	3.89
354.777	3.96
355.144	3.87
355.511	3.92
355.879	3.84
356.246	3.84
356.613	3.8
356.98	3.59
357.347	3.59
357.714	3.55
358.081	3.56
358.448	3.51
358.815	3.47
359.181	3.56
359.548	3.56
359.915	3.49
360.282	3.45
360.648	3.52
361.015	3.54
361.381	3.59
361.748	3.69
362.114	3.65
362.481	3.62
362.847	3.6
363.214	3.54
363.58	3.41
363.946	3.57
364.312	3.48
364.678	3.46
365.045	3.47
365.411	3.42
365.777	3.28
366.143	3.28
366.509	3.29
366.875	3.27
367.241	3.28
367.606	3.3
367.972	3.17
368.338	3.11
368.704	2.99
369.069	2.99
369.435	2.97
369.801	2.93
370.166	2.9
370.532	2.88
370.897	2.9
371.263	2.84
371.628	2.84
371.993	2.82
372.359	2.94
372.724	3.05
373.089	3.01
373.454	3.02
373.82	3.11
374.185	3.12
374.55	3.15
374.915	3.17
375.28	3.17
375.645	3.19
376.01	3.31
376.374	3.28
376.739	3.23
377.104	3.3
377.469	3.27
377.833	3.24
378.198	3.18
378.563	3.22
378.927	3.21
379.292	3.16
379.656	3.12
380.021	2.96
380.385	2.97
380.749	2.98
381.114	2.92
381.478	2.93
381.842	2.92
382.206	2.99
382.571	2.89
382.935	2.81
383.299	2.89
383.663	2.87
384.027	2.98
384.391	2.98
384.755	2.98
385.118	2.99
385.482	2.93
385.846	2.93
386.21	2.85
386.573	2.87
386.937	2.9
387.301	2.9
387.664	2.88
388.028	2.84
388.391	2.88
388.755	2.83
389.118	2.77
389.481	2.79
389.845	2.82
390.208	2.9
390.571	2.93
390.934	3
391.298	3.05
391.661	3.12
392.024	3.18
392.387	3.14
392.75	3.16
393.113	3.22
393.476	3.24
393.838	3.17
394.201	3.12
394.564	3.09
394.927	3.04
395.289	3.02
395.652	2.98
396.015	2.97
396.377	3
396.74	3.06
397.102	3.13
397.465	3.11
397.827	3.16
398.189	3.23
398.552	3.28
398.914	3.21
399.276	3.21
399.638	3.26
400	3.24
400.363	3.23
400.725	3.21
401.087	3.12
401.449	3.11
401.81	3.09
402.172	3.15
402.534	3.14
402.896	3.26
403.258	3.23
403.619	3.23
403.981	3.31
404.343	3.33
404.704	3.27
405.066	3.31
405.427	3.31
405.789	3.34
406.15	3.22
406.512	3.15
406.873	3.1
407.234	3.05
407.596	3.08
407.957	3
408.318	3
408.679	3
409.04	3.06
409.401	3.12
409.762	3.12
410.123	3.15
410.484	3.23
410.845	3.25
411.206	3.29
411.567	3.25
411.927	3.22
412.288	3.12
412.649	3.43
413.009	3.45
413.37	3.39
413.731	3.4
414.091	3.39
414.452	3.39
414.812	3.39
415.172	3.42
415.533	3.44
415.893	3.48
416.253	3.51
416.613	3.19
416.974	3.21
417.334	3.22
417.694	3.24
418.054	3.19
418.414	3.18
418.774	3.13
419.134	3.11
419.494	3.09
419.853	3.08
420.213	3.09
420.573	3.1
420.933	2.95
421.292	2.94
421.652	2.9
422.011	3.01
422.371	3
422.73	3.11
423.09	3.13
423.449	3.09
423.809	3.13
424.168	3.13
424.527	3.19
424.887	3.3
425.246	3.29
425.605	3.34
425.964	3.23
426.323	3.23
426.682	3.14
427.041	3.15
427.4	3.18
427.759	3.19
428.118	3.23
428.477	3.2
428.835	3.19
429.194	3.21
429.553	3.21
429.911	3.3
430.27	3.32
430.629	3.44
430.987	3.47
431.346	3.46
431.704	3.45
432.062	3.5
432.421	3.51
432.779	3.52
433.137	3.54
433.496	3.54
433.854	3.52
434.212	3.45
434.57	3.4
434.928	3.38
435.286	3.41
435.644	3.43
436.002	3.4
436.36	3.42
436.718	3.35
437.075	3.34
437.433	3.33
437.791	3.3
438.149	3.34
438.506	3.33
438.864	3.29
439.221	3.3
439.579	3.33
439.936	3.3
440.294	3.31
440.651	3.37
441.009	3.34
441.366	3.37
441.723	3.44
442.08	3.49
442.437	3.5
442.795	3.56
443.152	3.59
443.509	3.54
443.866	3.56
444.223	3.59
444.58	3.65
444.936	3.74
445.293	3.72
445.65	3.75
446.007	3.78
446.363	3.8
446.72	3.8
447.077	3.78
447.433	3.85
447.79	3.9
448.146	3.87
448.503	3.86
448.859	3.83
449.215	3.9
449.572	3.92
449.928	3.94
450.284	3.98
450.641	3.92
450.997	3.97
451.353	3.91
451.709	3.92
452.065	4.01
452.421	3.97
452.777	3.98
453.133	4.01
453.488	3.98
453.844	4
454.2	4.02
454.556	4.11
454.911	4.11
455.267	4.19
455.623	4.19
455.978	4.19
456.334	4.23
456.689	4.3
457.045	4.24
457.4	4.24
457.755	4.18
458.111	4.19
458.466	4.21
458.821	4.24
459.176	4.19
459.531	4.29
459.886	4.31
460.242	4.34
460.597	4.31
460.951	4.35
461.306	4.42
461.661	4.51
462.016	4.5
462.371	4.46
462.726	4.5
463.08	4.56
463.435	4.5
463.79	4.48
464.144	4.48
464.499	4.51
464.853	4.54
465.208	4.57
465.562	4.63
465.916	4.62
466.271	4.68
466.625	4.69
466.979	4.72
467.333	4.8
467.688	4.83
468.042	4.89
468.396	4.9
468.75	4.9
469.104	4.91
469.458	4.85
469.811	4.94
470.165	5.06
470.519	5.12
470.873	5.12
471.227	5.08
471.58	5.09
471.934	5.07
472.287	5.1
472.641	5.15
472.995	5.14
473.348	5.21
473.701	5.26
474.055	5.18
474.408	5.13
474.761	5.19
475.115	5.25
475.468	5.29
475.821	5.41
476.174	5.47
476.527	5.53
476.88	5.59
477.233	5.59
477.586	5.6
477.939	5.67
478.292	5.68
478.645	5.66
478.998	5.67
479.35	5.65
479.703	5.63
480.056	5.62
480.408	5.66
480.761	5.66
481.113	5.69
481.466	5.7
481.818	5.72
482.171	5.81
482.523	5.9
482.875	6.01
483.228	6.12
483.58	6.09
483.932	6.12
484.284	6.14
484.636	6.2
484.988	6.23
485.34	6.33
485.692	6.39
486.044	6.42
486.396	6.46
486.748	6.45
487.1	6.5
487.451	6.6
487.803	6.68
488.155	6.73
488.506	6.77
488.858	6.79
489.209	6.79
489.561	6.79
489.912	6.84
490.264	6.88
490.615	6.95
490.966	7.02
491.318	7.03
491.669	7.01
492.02	7.06
492.371	7.14
492.722	7.21
493.073	7.28
493.424	7.36
493.775	7.39
494.126	7.44
494.477	7.53
494.828	7.55
495.179	7.61
495.53	7.7
495.88	7.74
496.231	7.79
496.582	7.87
496.932	7.94
497.283	8.03
497.633	8.13
497.984	8.23
498.334	8.22
498.684	8.25
499.035	8.3
499.385	8.33
499.735	8.36
500.086	8.39
500.436	8.43
500.786	8.41
501.136	8.41
501.486	8.45
501.836	8.49
502.186	8.59
502.536	8.66
502.886	8.77
503.235	8.85
503.585	8.91
503.935	8.94
504.285	9.03
504.634	9.21
504.984	9.27
505.333	9.33
505.683	9.45
506.032	9.52
506.382	9.56
506.731	9.61
507.08	9.71
507.43	9.8
507.779	9.93
508.128	10.01
508.477	10.05
508.826	10.2
509.176	10.35
509.525	10.34
509.874	10.43
510.222	10.57
510.571	10.65
510.92	10.77
511.269	10.91
511.618	10.99
511.967	11.07
512.315	11.22
512.664	11.24
513.012	11.25
513.361	11.38
513.71	11.43
514.058	11.53
514.406	11.61
514.755	11.62
515.103	11.67
515.451	11.77
515.8	11.91
516.148	11.9
516.496	12.03
516.844	12.19
517.192	12.23
517.54	12.37
517.888	12.45
518.236	12.58
518.584	12.74
518.932	12.86
519.28	12.97
519.628	13.04
519.975	13.16
520.323	13.32
520.671	13.38
521.018	13.49
521.366	13.63
521.713	13.77
522.061	13.86
522.408	14.01
522.756	14.17
523.103	14.23
523.45	14.4
523.798	14.49
524.145	14.58
524.492	14.74
524.839	14.89
525.186	15.05
525.533	15.13
525.88	15.28
526.227	15.39
526.574	15.48
526.921	15.65
527.268	15.73
527.615	15.91
527.961	16.06
528.308	16.26
528.655	16.44
529.001	16.49
529.348	16.59
529.694	16.74
530.041	16.87
530.387	17.08
530.734	17.28
531.08	17.43
531.426	17.62
531.773	17.77
532.119	17.84
532.465	17.93
532.811	18.1
533.157	18.29
533.503	18.38
533.849	18.52
534.195	18.59
534.541	18.68
534.887	18.81
535.233	18.89
535.579	18.99
535.924	19.16
536.27	19.29
536.616	19.49
536.961	19.68
537.307	19.88
537.652	20.03
537.998	20.22
538.343	20.43
538.689	20.64
539.034	20.79
539.379	20.96
539.725	21.09
540.07	21.26
540.415	21.4
540.76	21.56
541.105	21.72
541.45	21.9
541.795	22.06
542.14	22.15
542.485	22.29
542.83	22.45
543.175	22.58
543.519	22.64
543.864	22.8
544.209	22.92
544.554	23.01
544.898	23.1
545.243	23.26
545.587	23.36
545.932	23.52
546.276	23.68
546.621	23.73
546.965	23.85
547.309	24.06
547.653	24.2
547.998	24.32
548.342	24.47
548.686	24.65
549.03	24.78
549.374	24.91
549.718	24.98
550.062	25.02
550.406	25.15
550.75	25.34
551.094	25.53
551.437	25.69
551.781	25.8
552.125	25.94
552.468	26.1
552.812	26.21
553.156	26.41
553.499	26.62
553.843	26.84
554.186	27.06
554.529	27.13
554.873	27.23
555.216	27.37
555.559	27.54
555.902	27.63
556.246	27.78
556.589	27.86
556.932	27.94
557.275	28.08
557.618	28.19
557.961	28.34
558.304	28.5
558.646	28.66
558.989	28.76
559.332	28.9
559.675	29.09
560.017	29.2
560.36	29.35
560.703	29.5
561.045	29.53
561.388	29.64
561.73	29.79
562.073	29.93
562.415	30.05
562.757	30.24
563.1	30.37
563.442	30.45
563.784	30.54
564.126	30.66
564.468	30.7
564.81	30.92
565.152	31.12
565.494	31.17
565.836	31.28
566.178	31.36
566.52	31.36
566.862	31.46
567.204	31.57
567.545	31.71
567.887	31.82
568.229	31.95
568.57	32.06
568.912	32.06
569.253	32.17
569.595	32.36
569.936	32.52
570.277	32.71
570.619	32.83
570.96	32.92
571.301	33.02
571.642	33.15
571.984	33.3
572.325	33.4
572.666	33.48
573.007	33.6
573.348	33.67
573.689	33.79
574.03	33.84
574.37	33.88
574.711	33.91
575.052	33.93
575.393	33.98
575.733	34.07
576.074	34.13
576.414	34.21
576.755	34.25
577.095	34.27
577.436	34.32
577.776	34.4
578.117	34.5
578.457	34.62
578.797	34.71
579.137	34.82
579.478	34.86
579.818	34.92
580.158	35.04
580.498	35.16
580.838	35.32
581.178	35.42
581.518	35.48
581.858	35.58
582.197	35.69
582.537	35.82
582.877	35.89
583.217	36.04
583.556	36.15
583.896	36.21
584.235	36.27
584.575	36.33
584.914	36.42
585.254	36.5
585.593	36.59
585.933	36.69
586.272	36.76
586.611	36.81
586.95	36.86
587.289	36.95
587.629	37.05
587.968	37.14
588.307	37.21
588.646	37.25
588.985	37.37
589.323	37.44
589.662	37.55
590.001	37.63
590.34	37.8
590.679	37.88
591.017	37.95
591.356	38.05
591.695	38.19
592.033	38.29
592.372	38.4
592.71	38.5
593.048	38.61
593.387	38.71
593.725	38.79
594.063	38.86
594.402	38.97
594.74	39.13
595.078	39.19
595.416	39.19
595.754	39.27
596.092	39.37
596.43	39.42
596.768	39.52
597.106	39.57
597.444	39.69
597.781	39.77
598.119	39.81
598.457	39.86
598.795	39.96
599.132	40.11
599.47	40.22
599.807	40.25
600.145	40.44
600.482	40.52
600.82	40.61
601.157	40.63
601.494	40.7
601.831	40.83
602.169	40.9
602.506	40.95
602.843	41.02
603.18	41.05
603.517	41.16
603.854	41.16
604.191	41.2
604.528	41.27
604.865	41.36
605.202	41.45
605.538	41.54
605.875	41.62
606.212	41.69
606.548	41.75
606.885	41.92
607.222	41.99
607.558	42.1
607.895	42.17
608.231	42.3
608.567	42.38
608.904	42.44
609.24	42.5
609.576	42.54
609.912	42.64
610.248	42.73
610.585	42.69
610.921	42.75
611.257	42.8
611.593	42.85
611.929	42.81
612.264	42.86
612.6	42.96
612.936	43.02
613.272	43.06
613.608	43.16
613.943	43.16
614.279	43.27
614.614	43.3
614.95	43.35
615.285	43.41
615.621	43.51
615.956	43.56
616.292	43.6
616.627	43.66
616.962	43.73
617.297	43.78
617.632	43.92
617.968	43.95
618.303	44.05
618.638	44.1
618.973	44.21
619.308	44.28
619.643	44.4
619.977	44.4
620.312	44.37
620.647	44.51
620.982	44.54
621.316	44.52
621.651	44.6
621.986	44.66
622.32	44.79
622.655	44.88
622.989	44.96
623.324	44.97
623.658	45.04
623.992	45.08
624.326	45.08
624.661	45.17
624.995	45.31
625.329	45.41
625.663	45.5
625.997	45.48
626.331	45.52
626.665	45.53
626.999	45.62
627.333	45.62
627.667	45.82
628.001	45.82
628.334	45.84
628.668	45.81
629.002	45.75
629.335	45.74
629.669	45.8
630.002	45.75
630.336	45.94
630.669	45.98
631.003	46.13
631.336	46.12
631.669	46.37
632.003	46.45
632.336	46.46
632.669	46.63
633.002	46.74
633.335	46.74
633.668	46.87
634.001	46.78
634.334	46.83
634.667	46.89
635	46.98
635.333	46.86
635.665	46.9
635.998	46.99
636.331	47.06
636.663	47.08
636.996	47.24
637.328	47.36
637.661	47.48
637.993	47.49
638.326	47.53
638.658	47.52
638.99	47.56
639.323	47.62
639.655	47.7
639.987	47.68
640.319	47.77
640.651	47.8
640.983	47.87
641.315	47.91
641.647	47.97
641.979	47.95
642.311	47.96
642.643	48.01
642.975	48.03
643.306	48.03
643.638	48.13
643.97	48.17
644.301	48.21
644.633	48.25
644.964	48.17
645.296	48.26
645.627	48.36
645.959	48.52
646.29	48.66
646.621	48.67
646.952	48.82
647.284	48.85
647.615	48.93
647.946	48.98
648.277	48.98
648.608	49.09
648.939	49.16
649.27	49.36
649.601	49.34
649.931	49.33
650.262	49.42
650.593	49.41
650.924	49.5
651.254	49.56
651.585	49.59
651.915	49.63
652.246	49.76
652.576	49.84
652.907	49.83
653.237	49.88
653.568	49.99
653.898	50.04
654.228	50.1
654.558	50.06
654.888	50.1
655.219	50.11
655.549	50.23
655.879	50.23
656.209	50.25
656.539	50.23
656.868	50.31
657.198	50.33
657.528	50.35
657.858	50.41
658.188	50.45
658.517	50.46
658.847	50.49
659.176	50.47
659.506	50.52
659.835	50.55
660.165	50.62
660.494	50.66
660.824	50.71
661.153	50.78
661.482	50.82
661.811	50.88
662.14	50.96
662.47	51.04
662.799	51.18
663.128	51.27
663.457	51.41
663.786	51.45
664.114	51.49
664.443	51.61
664.772	51.69
665.101	51.7
665.43	51.88
665.758	51.96
666.087	51.98
666.415	52.06
666.744	52.1
667.072	52.09
667.401	52.15
667.729	52.29
668.058	52.24
668.386	52.26
668.714	52.42
669.042	52.2
669.371	52.12
669.699	52.25
670.027	52.18
670.355	52.27
670.683	52.33
671.011	52.36
671.339	52.41
671.666	52.43
671.994	52.44
672.322	52.51
672.65	52.62
672.977	52.82
673.305	52.86
673.633	53.01
673.96	52.92
674.288	53.02
674.615	53.08
674.943	53.07
675.27	53.24
675.597	53.25
675.924	53.3
676.252	53.38
676.579	53.39
676.906	53.4
677.233	53.5
677.56	53.71
677.887	53.72
678.214	53.8
678.541	53.85
678.868	53.73
679.195	53.79
679.521	53.81
679.848	53.87
680.175	53.84
680.501	53.82
680.828	53.68
681.154	53.48
681.481	53.51
681.807	53.6
682.134	53.69
682.46	53.93
682.787	54.13
683.113	54.16
683.439	54.21
683.765	54.39
684.091	54.48
684.417	54.69
684.743	54.88
685.069	55.13
685.395	55.13
685.721	55.18
686.047	55.23
686.373	55.1
686.699	55.11
687.024	55.2
687.35	55.18
687.676	55.2
688.001	55.28
688.327	55.37
688.652	55.25
688.978	55.29
689.303	55.23
689.629	55.17
689.954	55.25
690.279	55.22
690.604	55.3
690.93	55.36
691.255	55.56
691.58	55.51
691.905	55.33
692.23	55.43
692.555	55.57
692.88	55.77
693.204	55.87
693.529	55.84
693.854	55.97
694.179	55.94
694.503	56.03
694.828	55.97
695.153	56.03
695.477	56.22
695.802	56.16
696.126	56.13
696.451	56.12
696.775	56.17
697.099	56.33
697.423	56.38
697.748	56.37
698.072	56.26
698.396	56.29
698.72	56.26
699.044	56.27
699.368	56.3
699.692	56.36
700.016	56.47
700.34	56.51
700.664	56.41
