Data from battus_ven_HW_orange_left_1_Reflection__0__78.txt Node

Date: Mon Dec 12 10:39:11 EST 2022
User: abbyrobinson
Spectrometer: USB2G8287
Scans to average: 10
Trigger mode: 4
Integration Time (sec): 1.000000E-1
Electric dark correction enabled: true
Boxcar width: 5
XAxis mode: Wavelengths
Number of Pixels in Spectrum: 2048
>>>>>Begin Spectral Data<<<<<
177.272	83.63
177.658	87.84
178.044	90.17
178.43	82.16
178.816	84.62
179.203	94.98
179.589	87.63
179.975	75.16
180.361	67.28
180.747	72.26
181.133	77.54
181.519	85.21
181.904	87.84
182.29	91.6
182.676	87.24
183.062	86.86
183.447	89.59
183.833	97.04
184.219	130.4
184.604	161.88
184.99	154.01
185.375	235.29
185.761	363.64
186.146	-58.77
186.531	-36.31
186.917	-81.63
187.302	-25.13
187.687	-20.03
188.073	-21.47
188.458	-23.88
188.843	-31.24
189.228	-24.79
189.613	-48.49
189.998	-35.46
190.383	-47.06
190.768	-57.38
191.153	-45.22
191.538	-44.94
191.923	-32.66
192.307	-34.19
192.692	-25.91
193.077	-28.45
193.461	-50.39
193.846	-34.76
194.231	-41.73
194.615	-44.02
195	-21.5
195.384	-42.79
195.769	-44.1
196.153	-44.76
196.537	-28.92
196.922	-34.86
197.306	-35.41
197.69	-28.87
198.074	-31.39
198.458	-30.05
198.843	-26.53
199.227	-26.42
199.611	-17.7
199.995	-14.44
200.379	-27.18
200.763	-37.61
201.146	-33.31
201.53	-33.72
201.914	-35.25
202.298	-36.2
202.681	-34.49
203.065	-31.3
203.449	-38.55
203.832	-38.42
204.216	-48.92
204.599	46.33
204.983	46.26
205.366	48.96
205.75	50.47
206.133	51.22
206.516	52.43
206.9	49.68
207.283	49.48
207.666	49.95
208.049	54.87
208.432	54.99
208.815	-22.01
209.198	-41.02
209.581	-47.74
209.964	-44.75
210.347	-40.68
210.73	-30.2
211.113	-27.27
211.496	-13.37
211.879	-10.72
212.261	-24.87
212.644	-28.79
213.027	-28.01
213.409	-20.79
213.792	-26.18
214.174	-24.7
214.557	-14.78
214.939	-25.44
215.322	-22.68
215.704	-33.21
216.086	-30.84
216.469	-22.97
216.851	-28.59
217.233	-34.55
217.615	-30.94
217.997	-22.49
218.379	-17.83
218.761	-12.33
219.143	-2.64
219.525	-9.58
219.907	-2.97
220.289	2.33
220.671	2.48
221.053	4.36
221.435	6.78
221.816	0.8
222.198	1.02
222.58	0.73
222.961	-5.57
223.343	-13.78
223.724	-10.09
224.106	-16.76
224.487	-22.89
224.869	-19.35
225.25	-22.51
225.631	-21.64
226.013	-12.75
226.394	-14.63
226.775	-16.61
227.156	-15.72
227.537	-12.81
227.919	-12.76
228.3	-5.14
228.681	-3.65
229.062	-7.35
229.442	-9.58
229.823	-7.9
230.204	-8.51
230.585	-8.32
230.966	-6.75
231.347	-8.28
231.727	-8.99
232.108	-7.38
232.488	-8.67
232.869	-8.04
233.25	-6.28
233.63	-3.51
234.01	-3.23
234.391	-4.24
234.771	-2.54
235.152	-1.31
235.532	-1.27
235.912	-0.29
236.292	-0.27
236.672	-0.52
237.053	0.51
237.433	0.67
237.813	0.98
238.193	1.14
238.573	1.82
238.953	2.12
239.333	1.43
239.712	1.88
240.092	1.77
240.472	1.87
240.852	2.54
241.231	2.71
241.611	2.87
241.991	3.06
242.37	3.42
242.75	3.6
243.129	3.22
243.509	3.85
243.888	4.04
244.267	4.24
244.647	4.3
245.026	3.91
245.405	3.67
245.784	3.74
246.164	3.49
246.543	3.38
246.922	3.17
247.301	3.39
247.68	3.21
248.059	3.39
248.438	3.42
248.817	3.32
249.195	3.52
249.574	3.6
249.953	3.58
250.332	3.74
250.71	3.82
251.089	4.06
251.468	4.08
251.846	3.99
252.225	3.85
252.603	3.77
252.982	3.95
253.36	3.81
253.738	3.73
254.117	3.64
254.495	3.61
254.873	3.53
255.251	3.38
255.63	3.47
256.008	3.49
256.386	3.42
256.764	3.44
257.142	3.45
257.52	3.51
257.898	3.58
258.276	3.63
258.653	3.64
259.031	3.73
259.409	3.77
259.787	3.71
260.164	3.86
260.542	3.97
260.92	4.03
261.297	3.98
261.675	4.04
262.052	4.05
262.43	4.01
262.807	4.03
263.184	3.94
263.562	4
263.939	4.07
264.316	3.95
264.693	3.82
265.07	3.78
265.448	3.76
265.825	3.7
266.202	3.66
266.579	3.77
266.956	3.74
267.333	3.74
267.709	3.67
268.086	3.59
268.463	3.64
268.84	3.68
269.216	3.72
269.593	3.72
269.97	3.74
270.346	3.74
270.723	3.7
271.099	3.68
271.476	3.73
271.852	3.74
272.229	3.76
272.605	3.8
272.981	3.83
273.358	3.87
273.734	3.87
274.11	3.82
274.486	3.93
274.862	4.05
275.238	4.12
275.614	4.1
275.99	4.13
276.366	4.19
276.742	4.06
277.118	4.09
277.494	4.12
277.87	4.26
278.245	4.38
278.621	4.33
278.997	4.26
279.372	4.3
279.748	4.34
280.123	4.35
280.499	4.36
280.874	4.47
281.25	4.52
281.625	4.46
282	4.42
282.376	4.47
282.751	4.38
283.126	4.4
283.501	4.36
283.876	4.43
284.252	4.5
284.627	4.44
285.002	4.5
285.377	4.49
285.751	4.64
286.126	4.62
286.501	4.61
286.876	4.71
287.251	4.76
287.625	4.92
288	4.95
288.375	4.93
288.749	4.97
289.124	5.04
289.498	5.11
289.873	5.02
290.247	5.04
290.622	4.99
290.996	5.05
291.37	4.99
291.745	4.97
292.119	4.98
292.493	5.01
292.867	5.05
293.241	5.08
293.616	5.07
293.99	5.13
294.364	5.26
294.737	5.39
295.111	5.45
295.485	5.6
295.859	5.64
296.233	5.61
296.607	5.72
296.98	5.92
297.354	5.93
297.728	6.04
298.101	6.04
298.475	6.02
298.848	6.07
299.222	6.17
299.595	6.17
299.968	6.11
300.342	6.25
300.715	6.19
301.088	6.1
301.462	6.13
301.835	6.11
302.208	6.22
302.581	6.31
302.954	6.27
303.327	6.22
303.7	6.26
304.073	6.35
304.446	6.39
304.819	6.56
305.192	6.55
305.564	6.6
305.937	6.71
306.31	6.72
306.682	6.79
307.055	6.85
307.428	6.92
307.8	6.92
308.173	7.01
308.545	7.04
308.917	6.99
309.29	7.09
309.662	7.06
310.034	7.18
310.407	7.22
310.779	7.15
311.151	7.29
311.523	7.32
311.895	7.41
312.267	7.52
312.639	7.58
313.011	7.72
313.383	7.78
313.755	7.95
314.127	7.85
314.498	7.93
314.87	7.97
315.242	8
315.614	8.05
315.985	8.01
316.357	8.04
316.728	8.03
317.1	8.02
317.471	8.02
317.843	8.07
318.214	8.17
318.585	8.3
318.957	8.37
319.328	8.41
319.699	8.46
320.07	8.59
320.441	8.6
320.813	8.66
321.184	8.81
321.555	8.84
321.926	8.91
322.297	8.99
322.667	9.03
323.038	9.16
323.409	9.35
323.78	9.38
324.151	9.45
324.521	9.49
324.892	9.61
325.262	9.58
325.633	9.68
326.004	9.74
326.374	9.77
326.744	9.79
327.115	9.8
327.485	9.67
327.855	9.76
328.226	9.79
328.596	9.87
328.966	9.89
329.336	9.88
329.706	9.91
330.076	9.78
330.447	9.86
330.816	9.9
331.186	9.91
331.556	9.99
331.926	10.05
332.296	10.1
332.666	10.11
333.036	10.05
333.405	10.09
333.775	10.11
334.144	10.26
334.514	10.2
334.884	10.09
335.253	10.06
335.623	10.05
335.992	9.99
336.361	10.03
336.731	9.97
337.1	9.94
337.469	10
337.838	9.99
338.208	9.95
338.577	9.92
338.946	9.91
339.315	10.04
339.684	10.05
340.053	10.07
340.422	9.99
340.79	9.88
341.159	9.82
341.528	9.69
341.897	9.69
342.266	9.67
342.634	9.73
343.003	9.81
343.371	9.67
343.74	9.53
344.108	9.45
344.477	9.42
344.845	9.53
345.214	9.56
345.582	9.52
345.95	9.41
346.319	9.35
346.687	9.22
347.055	9.16
347.423	9.16
347.791	9.18
348.159	9.14
348.527	9.14
348.895	9.08
349.263	9.11
349.631	9.11
349.999	9.06
350.367	9.04
350.734	8.94
351.102	8.89
351.47	8.86
351.837	8.84
352.205	8.84
352.573	8.66
352.94	8.52
353.308	8.52
353.675	8.45
354.042	8.47
354.41	8.32
354.777	8.23
355.144	8.06
355.511	7.89
355.879	7.72
356.246	7.65
356.613	7.67
356.98	7.67
357.347	7.55
357.714	7.4
358.081	7.25
358.448	7.17
358.815	7.2
359.181	7.19
359.548	7.15
359.915	7.11
360.282	7.01
360.648	6.83
361.015	6.71
361.381	6.63
361.748	6.63
362.114	6.54
362.481	6.48
362.847	6.37
363.214	6.3
363.58	6.23
363.946	6.2
364.312	6.12
364.678	6.14
365.045	6.15
365.411	6.05
365.777	5.98
366.143	5.95
366.509	5.91
366.875	5.86
367.241	5.81
367.606	5.75
367.972	5.64
368.338	5.54
368.704	5.39
369.069	5.35
369.435	5.31
369.801	5.23
370.166	5.17
370.532	5.12
370.897	5.09
371.263	5.03
371.628	4.98
371.993	4.96
372.359	4.96
372.724	4.97
373.089	4.77
373.454	4.71
373.82	4.68
374.185	4.65
374.55	4.68
374.915	4.61
375.28	4.52
375.645	4.48
376.01	4.41
376.374	4.37
376.739	4.26
377.104	4.29
377.469	4.23
377.833	4.19
378.198	4.14
378.563	4.09
378.927	4.08
379.292	4.09
379.656	4.01
380.021	3.92
380.385	3.88
380.749	3.88
381.114	3.84
381.478	3.8
381.842	3.76
382.206	3.69
382.571	3.65
382.935	3.56
383.299	3.45
383.663	3.49
384.027	3.54
384.391	3.46
384.755	3.44
385.118	3.39
385.482	3.34
385.846	3.37
386.21	3.29
386.573	3.21
386.937	3.23
387.301	3.25
387.664	3.21
388.028	3.22
388.391	3.24
388.755	3.22
389.118	3.18
389.481	3.23
389.845	3.18
390.208	3.24
390.571	3.26
390.934	3.27
391.298	3.27
391.661	3.26
392.024	3.2
392.387	3.16
392.75	3.14
393.113	3.14
393.476	3.12
393.838	3.02
394.201	2.96
394.564	2.95
394.927	2.89
395.289	2.83
395.652	2.78
396.015	2.81
396.377	2.82
396.74	2.88
397.102	2.91
397.465	2.89
397.827	2.95
398.189	2.99
398.552	2.95
398.914	2.88
399.276	2.91
399.638	2.93
400	2.94
400.363	2.89
400.725	2.79
401.087	2.69
401.449	2.71
401.81	2.68
402.172	2.76
402.534	2.77
402.896	2.85
403.258	2.82
403.619	2.8
403.981	2.77
404.343	2.76
404.704	2.83
405.066	2.88
405.427	2.84
405.789	2.85
406.15	2.75
406.512	2.67
406.873	2.66
407.234	2.67
407.596	2.66
407.957	2.6
408.318	2.6
408.679	2.55
409.04	2.62
409.401	2.62
409.762	2.57
410.123	2.57
410.484	2.64
410.845	2.57
411.206	2.59
411.567	2.59
411.927	2.62
412.288	2.55
412.649	2.95
413.009	2.98
413.37	2.95
413.731	3
414.091	3.02
414.452	3
414.812	3.03
415.172	3.02
415.533	3.04
415.893	3.06
416.253	3.14
416.613	2.76
416.974	2.71
417.334	2.74
417.694	2.72
418.054	2.65
418.414	2.63
418.774	2.62
419.134	2.63
419.494	2.62
419.853	2.6
420.213	2.59
420.573	2.61
420.933	2.58
421.292	2.59
421.652	2.57
422.011	2.68
422.371	2.7
422.73	2.78
423.09	2.77
423.449	2.69
423.809	2.71
424.168	2.68
424.527	2.67
424.887	2.65
425.246	2.65
425.605	2.69
425.964	2.59
426.323	2.58
426.682	2.48
427.041	2.46
427.4	2.52
427.759	2.56
428.118	2.57
428.477	2.53
428.835	2.59
429.194	2.57
429.553	2.53
429.911	2.6
430.27	2.63
430.629	2.72
430.987	2.77
431.346	2.75
431.704	2.72
432.062	2.7
432.421	2.72
432.779	2.69
433.137	2.72
433.496	2.75
433.854	2.7
434.212	2.65
434.57	2.66
434.928	2.65
435.286	2.66
435.644	2.69
436.002	2.72
436.36	2.77
436.718	2.72
437.075	2.71
437.433	2.76
437.791	2.75
438.149	2.76
438.506	2.73
438.864	2.77
439.221	2.76
439.579	2.8
439.936	2.83
440.294	2.82
440.651	2.85
441.009	2.81
441.366	2.78
441.723	2.83
442.08	2.92
442.437	2.92
442.795	2.89
443.152	2.95
443.509	2.92
443.866	2.88
444.223	2.89
444.58	2.95
444.936	3.03
445.293	3.03
445.65	3.02
446.007	3.02
446.363	3.01
446.72	3.02
447.077	3.05
447.433	3.08
447.79	3.11
448.146	3.13
448.503	3.12
448.859	3.07
449.215	3.12
449.572	3.14
449.928	3.11
450.284	3.14
450.641	3.12
450.997	3.09
451.353	3.03
451.709	3.03
452.065	3.06
452.421	3.01
452.777	3.06
453.133	3.05
453.488	2.99
453.844	3.01
454.2	3.05
454.556	3.09
454.911	3.1
455.267	3.2
455.623	3.25
455.978	3.22
456.334	3.27
456.689	3.23
457.045	3.2
457.4	3.28
457.755	3.3
458.111	3.31
458.466	3.29
458.821	3.3
459.176	3.2
459.531	3.2
459.886	3.17
460.242	3.22
460.597	3.22
460.951	3.23
461.306	3.22
461.661	3.22
462.016	3.18
462.371	3.23
462.726	3.28
463.08	3.36
463.435	3.33
463.79	3.35
464.144	3.35
464.499	3.38
464.853	3.41
465.208	3.47
465.562	3.55
465.916	3.53
466.271	3.53
466.625	3.5
466.979	3.52
467.333	3.56
467.688	3.56
468.042	3.58
468.396	3.61
468.75	3.63
469.104	3.67
469.458	3.64
469.811	3.77
470.165	3.81
470.519	3.86
470.873	3.88
471.227	3.92
471.58	4.03
471.934	4.01
472.287	3.98
472.641	3.95
472.995	3.88
473.348	3.88
473.701	3.89
474.055	3.8
474.408	3.8
474.761	3.83
475.115	3.8
475.468	3.7
475.821	3.8
476.174	3.82
476.527	3.91
476.88	3.93
477.233	3.9
477.586	3.88
477.939	3.96
478.292	3.97
478.645	3.91
478.998	3.9
479.35	3.98
479.703	3.93
480.056	3.99
480.408	3.98
480.761	4.01
481.113	4.12
481.466	4.13
481.818	4.16
482.171	4.16
482.523	4.22
482.875	4.31
483.228	4.36
483.58	4.37
483.932	4.41
484.284	4.4
484.636	4.45
484.988	4.43
485.34	4.48
485.692	4.47
486.044	4.52
486.396	4.54
486.748	4.56
487.1	4.59
487.451	4.61
487.803	4.59
488.155	4.62
488.506	4.64
488.858	4.67
489.209	4.66
489.561	4.68
489.912	4.73
490.264	4.77
490.615	4.75
490.966	4.77
491.318	4.82
491.669	4.85
492.02	4.91
492.371	4.95
492.722	4.96
493.073	5.02
493.424	5.1
493.775	5.06
494.126	5.11
494.477	5.18
494.828	5.18
495.179	5.22
495.53	5.26
495.88	5.3
496.231	5.33
496.582	5.39
496.932	5.44
497.283	5.48
497.633	5.54
497.984	5.62
498.334	5.62
498.684	5.63
499.035	5.66
499.385	5.72
499.735	5.71
500.086	5.73
500.436	5.79
500.786	5.78
501.136	5.81
501.486	5.88
501.836	5.93
502.186	6.01
502.536	6.09
502.886	6.16
503.235	6.21
503.585	6.31
503.935	6.34
504.285	6.37
504.634	6.52
504.984	6.53
505.333	6.57
505.683	6.62
506.032	6.66
506.382	6.67
506.731	6.69
507.08	6.77
507.43	6.82
507.779	6.92
508.128	7.01
508.477	7.01
508.826	7.08
509.176	7.2
509.525	7.26
509.874	7.34
510.222	7.49
510.571	7.6
510.92	7.64
511.269	7.74
511.618	7.82
511.967	7.88
512.315	8.01
512.664	8.1
513.012	8.11
513.361	8.18
513.71	8.27
514.058	8.35
514.406	8.35
514.755	8.44
515.103	8.47
515.451	8.51
515.8	8.58
516.148	8.64
516.496	8.67
516.844	8.8
517.192	8.86
517.54	8.88
517.888	8.98
518.236	9.17
518.584	9.31
518.932	9.41
519.28	9.55
519.628	9.64
519.975	9.74
520.323	9.94
520.671	10.02
521.018	10.08
521.366	10.27
521.713	10.32
522.061	10.39
522.408	10.45
522.756	10.62
523.103	10.67
523.45	10.77
523.798	10.87
524.145	10.99
524.492	11.12
524.839	11.28
525.186	11.41
525.533	11.52
525.88	11.62
526.227	11.75
526.574	11.89
526.921	12.03
527.268	12.17
527.615	12.28
527.961	12.4
528.308	12.51
528.655	12.63
529.001	12.73
529.348	12.9
529.694	13.09
530.041	13.28
530.387	13.35
530.734	13.56
531.08	13.69
531.426	13.85
531.773	14.02
532.119	14.19
532.465	14.29
532.811	14.46
533.157	14.6
533.503	14.68
533.849	14.75
534.195	14.92
534.541	15.06
534.887	15.25
535.233	15.43
535.579	15.56
535.924	15.65
536.27	15.86
536.616	15.99
536.961	16.16
537.307	16.39
537.652	16.59
537.998	16.75
538.343	16.9
538.689	17.06
539.034	17.27
539.379	17.42
539.725	17.67
540.07	17.82
540.415	18.02
540.76	18.19
541.105	18.32
541.45	18.54
541.795	18.71
542.14	18.89
542.485	19.05
542.83	19.18
543.175	19.33
543.519	19.45
543.864	19.6
544.209	19.8
544.554	19.95
544.898	20.12
545.243	20.23
545.587	20.43
545.932	20.57
546.276	20.81
546.621	20.95
546.965	21.14
547.309	21.3
547.653	21.52
547.998	21.59
548.342	21.76
548.686	21.96
549.03	22.15
549.374	22.3
549.718	22.49
550.062	22.55
550.406	22.75
550.75	22.91
551.094	23.14
551.437	23.33
551.781	23.52
552.125	23.74
552.468	23.93
552.812	24.11
553.156	24.35
553.499	24.57
553.843	24.8
554.186	24.92
554.529	25.16
554.873	25.33
555.216	25.46
555.559	25.76
555.902	25.94
556.246	26.14
556.589	26.31
556.932	26.41
557.275	26.58
557.618	26.79
557.961	27.13
558.304	27.31
558.646	27.54
558.989	27.69
559.332	27.81
559.675	27.93
560.017	28.08
560.36	28.29
560.703	28.48
561.045	28.65
561.388	28.81
561.73	28.9
562.073	29.06
562.415	29.2
562.757	29.35
563.1	29.46
563.442	29.6
563.784	29.74
564.126	29.93
564.468	30.05
564.81	30.18
565.152	30.32
565.494	30.41
565.836	30.59
566.178	30.74
566.52	30.93
566.862	31.17
567.204	31.34
567.545	31.52
567.887	31.57
568.229	31.76
568.57	31.88
568.912	32.1
569.253	32.29
569.595	32.42
569.936	32.51
570.277	32.71
570.619	32.85
570.96	33.07
571.301	33.28
571.642	33.53
571.984	33.6
572.325	33.8
572.666	33.92
573.007	34.06
573.348	34.23
573.689	34.43
574.03	34.58
574.37	34.71
574.711	34.77
575.052	34.87
575.393	34.96
575.733	35.12
576.074	35.26
576.414	35.34
576.755	35.46
577.095	35.55
577.436	35.63
577.776	35.73
578.117	35.84
578.457	35.98
578.797	36.08
579.137	36.18
579.478	36.26
579.818	36.33
580.158	36.45
580.498	36.58
580.838	36.71
581.178	36.87
581.518	36.99
581.858	37.1
582.197	37.2
582.537	37.35
582.877	37.51
583.217	37.69
583.556	37.83
583.896	37.96
584.235	38.1
584.575	38.23
584.914	38.32
585.254	38.41
585.593	38.55
585.933	38.68
586.272	38.8
586.611	38.92
586.95	38.99
587.289	39.15
587.629	39.28
587.968	39.4
588.307	39.49
588.646	39.62
588.985	39.78
589.323	39.9
589.662	40.05
590.001	40.15
590.34	40.23
590.679	40.41
591.017	40.48
591.356	40.61
591.695	40.71
592.033	40.89
592.372	41
592.71	41.12
593.048	41.26
593.387	41.4
593.725	41.54
594.063	41.71
594.402	41.84
594.74	42.02
595.078	42.14
595.416	42.26
595.754	42.32
596.092	42.48
596.43	42.61
596.768	42.7
597.106	42.76
597.444	42.92
597.781	43
598.119	43.07
598.457	43.18
598.795	43.28
599.132	43.39
599.47	43.53
599.807	43.65
600.145	43.76
600.482	43.88
600.82	44.03
601.157	44.07
601.494	44.18
601.831	44.31
602.169	44.38
602.506	44.54
602.843	44.67
603.18	44.77
603.517	44.83
603.854	44.93
604.191	45.07
604.528	45.09
604.865	45.22
605.202	45.3
605.538	45.4
605.875	45.49
606.212	45.56
606.548	45.65
606.885	45.68
607.222	45.82
607.558	45.92
607.895	46.01
608.231	46.17
608.567	46.31
608.904	46.44
609.24	46.53
609.576	46.64
609.912	46.71
610.248	46.78
610.585	46.93
610.921	47.01
611.257	47.1
611.593	47.15
611.929	47.29
612.264	47.31
612.6	47.43
612.936	47.48
613.272	47.57
613.608	47.68
613.943	47.77
614.279	47.83
614.614	47.94
614.95	47.97
615.285	48.09
615.621	48.15
615.956	48.25
616.292	48.3
616.627	48.38
616.962	48.48
617.297	48.49
617.632	48.64
617.968	48.76
618.303	48.91
618.638	49.08
618.973	49.19
619.308	49.3
619.643	49.41
619.977	49.55
620.312	49.72
620.647	49.8
620.982	49.97
621.316	50.07
621.651	50.19
621.986	50.26
622.32	50.39
622.655	50.48
622.989	50.61
623.324	50.69
623.658	50.78
623.992	50.8
624.326	50.93
624.661	51.02
624.995	51.05
625.329	51.14
625.663	51.15
625.997	51.19
626.331	51.25
626.665	51.29
626.999	51.45
627.333	51.64
627.667	51.8
628.001	51.85
628.334	51.96
628.668	52.02
629.002	52.04
629.335	52.13
629.669	52.22
630.002	52.32
630.336	52.4
630.669	52.39
631.003	52.3
631.336	52.37
631.669	52.51
632.003	52.57
632.336	52.68
632.669	52.84
633.002	52.91
633.335	52.95
633.668	53.04
634.001	53.16
634.334	53.3
634.667	53.45
635	53.5
635.333	53.52
635.665	53.66
635.998	53.72
636.331	53.82
636.663	53.95
636.996	54.04
637.328	54.12
637.661	54.08
637.993	54.09
638.326	54.23
638.658	54.26
638.99	54.3
639.323	54.24
639.655	54.35
639.987	54.31
640.319	54.3
640.651	54.44
640.983	54.57
641.315	54.72
641.647	54.84
641.979	54.82
642.311	54.97
642.643	55.15
642.975	55.33
643.306	55.38
643.638	55.57
643.97	55.85
644.301	55.95
644.633	56.04
644.964	56.13
645.296	56.19
645.627	56.23
645.959	56.26
646.29	56.3
646.621	56.42
646.952	56.55
647.284	56.61
647.615	56.54
647.946	56.53
648.277	56.58
648.608	56.64
648.939	56.85
649.27	57
649.601	57.12
649.931	57.18
650.262	57.26
650.593	57.32
650.924	57.43
651.254	57.58
651.585	57.66
651.915	57.65
652.246	57.72
652.576	57.69
652.907	57.66
653.237	57.67
653.568	57.68
653.898	57.7
654.228	57.74
654.558	57.79
654.888	57.8
655.219	57.83
655.549	57.94
655.879	57.89
656.209	57.76
656.539	57.78
656.868	57.72
657.198	57.76
657.528	57.83
657.858	57.9
658.188	57.94
658.517	57.97
658.847	58.02
659.176	58.03
659.506	58.11
659.835	58.2
660.165	58.27
660.494	58.35
660.824	58.44
661.153	58.48
661.482	58.53
661.811	58.62
662.14	58.71
662.47	58.75
662.799	58.88
663.128	58.99
663.457	59.1
663.786	59.23
664.114	59.43
664.443	59.53
664.772	59.69
665.101	59.88
665.43	59.95
665.758	60.1
666.087	60.36
666.415	60.39
666.744	60.48
667.072	60.71
667.401	60.91
667.729	61.09
668.058	61.15
668.386	61.32
668.714	61.39
669.042	61.37
669.371	61.44
669.699	61.48
670.027	61.78
670.355	61.85
670.683	61.78
671.011	61.76
671.339	61.63
671.666	61.81
671.994	61.78
672.322	61.76
672.65	61.87
672.977	61.98
673.305	62.02
673.633	62
673.96	62.12
674.288	62.21
674.615	62.15
674.943	62.27
675.27	62.36
675.597	62.38
675.924	62.39
676.252	62.43
676.579	62.37
676.906	62.51
677.233	62.61
677.56	62.68
677.887	62.9
678.214	63.12
678.541	63.18
678.868	63.19
679.195	63.33
679.521	63.45
679.848	63.52
680.175	63.7
680.501	63.65
680.828	63.62
681.154	63.59
681.481	63.51
681.807	63.63
682.134	63.7
682.46	63.63
682.787	63.78
683.113	63.76
683.439	63.83
683.765	63.88
684.091	63.97
684.417	64.12
684.743	64.23
685.069	64.32
685.395	64.22
685.721	64.34
686.047	64.37
686.373	64.19
686.699	64.38
687.024	64.42
687.35	64.39
687.676	64.52
688.001	64.52
688.327	64.52
688.652	64.43
688.978	64.54
689.303	64.47
689.629	64.66
689.954	64.79
690.279	64.79
690.604	64.77
690.93	64.84
691.255	64.87
691.58	64.79
691.905	64.89
692.23	65.12
692.555	65.22
692.88	65.33
693.204	65.31
693.529	65.41
693.854	65.44
694.179	65.55
694.503	65.62
694.828	65.61
695.153	65.75
695.477	65.69
695.802	65.61
696.126	65.57
696.451	65.53
696.775	65.53
697.099	65.49
697.423	65.56
697.748	65.56
698.072	65.65
698.396	65.64
698.72	65.67
699.044	65.79
699.368	65.82
699.692	65.85
700.016	65.95
700.34	66.09
700.664	66.18
700.987	66.26
