Data from battus_ven_HW_orange_right_7_Reflection__0__137.txt Node

Date: Mon Dec 12 12:08:05 EST 2022
User: abbyrobinson
Spectrometer: USB2G8287
Scans to average: 10
Trigger mode: 4
Integration Time (sec): 1.000000E-1
Electric dark correction enabled: true
Boxcar width: 5
XAxis mode: Wavelengths
Number of Pixels in Spectrum: 2048
>>>>>Begin Spectral Data<<<<<
177.272	95.89
177.658	99.08
178.044	93.93
178.43	87.21
178.816	93.37
179.203	88.47
179.589	108.44
179.975	118.24
180.361	100.5
180.747	92.18
181.133	83.11
181.519	91.16
181.904	99.08
182.29	99.76
182.676	100.55
183.062	107.77
183.447	108.43
183.833	116.52
184.219	80.39
184.604	89.76
184.99	107.39
185.375	167.75
185.761	210.88
186.146	-1476.47
186.531	-67.49
186.917	-60.31
187.302	9.99
187.687	8.67
188.073	-8.68
188.458	-29.38
188.843	-24.41
189.228	-35.08
189.613	-70.17
189.998	-55.76
190.383	-68.54
190.768	-90.84
191.153	-73.41
191.538	-77.2
191.923	-49.71
192.307	-50.5
192.692	-41.3
193.077	-58.34
193.461	-54.41
193.846	-35.86
194.231	-31.03
194.615	-23.29
195	-4.74
195.384	-18.6
195.769	-18.68
196.153	-37.51
196.537	-29.73
196.922	-27.75
197.306	-7.59
197.69	-4.57
198.074	-7.88
198.458	-13.92
198.843	-21.18
199.227	-30.04
199.611	-27.93
199.995	-30.88
200.379	-44.77
200.763	-56.24
201.146	-49.69
201.53	-64.94
201.914	-70.56
202.298	-66.63
202.681	-56.2
203.065	-37.37
203.449	-41.22
203.832	-29.99
204.216	-44.26
204.599	62.17
204.983	68.19
205.366	65.54
205.75	67.02
206.133	64.11
206.516	65.31
206.9	64.89
207.283	59.75
207.666	56.64
208.049	56.08
208.432	57.98
208.815	-26.28
209.198	-56.87
209.581	-50.48
209.964	-45.15
210.347	-45.19
210.73	-44.45
211.113	-47.62
211.496	-33.55
211.879	-23.19
212.261	-32.32
212.644	-33.05
213.027	-27.1
213.409	-13.44
213.792	-24.95
214.174	-26.7
214.557	-13.19
214.939	-15.92
215.322	-16.36
215.704	-23.56
216.086	-25.76
216.469	-23.47
216.851	-26.54
217.233	-42.13
217.615	-50.31
217.997	-36
218.379	-36.36
218.761	-39.85
219.143	-30.26
219.525	-37.65
219.907	-29.11
220.289	-21.8
220.671	-21.39
221.053	-14.39
221.435	-11.18
221.816	-15.73
222.198	-20.24
222.58	-19.84
222.961	-20.72
223.343	-29.52
223.724	-17.29
224.106	-22.29
224.487	-31.18
224.869	-26.92
225.25	-36.14
225.631	-35.23
226.013	-22.01
226.394	-16.51
226.775	-15.44
227.156	-17.55
227.537	-16.08
227.919	-21.94
228.3	-18.74
228.681	-13.75
229.062	-14.74
229.442	-14.4
229.823	-11.46
230.204	-12.96
230.585	-13.55
230.966	-14.21
231.347	-12.07
231.727	-11.08
232.108	-9.22
232.488	-7.08
232.869	-6.39
233.25	-5.23
233.63	-2.83
234.01	-3.91
234.391	-4.37
234.771	-3.15
235.152	-1.37
235.532	-1.38
235.912	0.64
236.292	0.82
236.672	0.99
237.053	1.83
237.433	1.86
237.813	1.86
238.193	2.49
238.573	2.92
238.953	3.05
239.333	2.87
239.712	3.13
240.092	2.67
240.472	2.89
240.852	3.1
241.231	3.49
241.611	3.91
241.991	4.37
242.37	4.75
242.75	5.3
243.129	5.66
243.509	6.36
243.888	6.94
244.267	7.12
244.647	7.33
245.026	7.3
245.405	7.29
245.784	7.3
246.164	7.06
246.543	7.14
246.922	6.93
247.301	7.13
247.68	6.9
248.059	7.02
248.438	7.24
248.817	7.16
249.195	7.26
249.574	7.37
249.953	7.53
250.332	7.71
250.71	7.82
251.089	8.19
251.468	8.23
251.846	8.26
252.225	8.09
252.603	8.12
252.982	8.25
253.36	8.24
253.738	8.36
254.117	8.44
254.495	8.47
254.873	8.51
255.251	8.48
255.63	8.47
256.008	8.52
256.386	8.55
256.764	8.46
257.142	8.5
257.52	8.54
257.898	8.45
258.276	8.41
258.653	8.38
259.031	8.38
259.409	8.33
259.787	8.39
260.164	8.45
260.542	8.53
260.92	8.63
261.297	8.64
261.675	8.67
262.052	8.71
262.43	8.71
262.807	8.75
263.184	8.76
263.562	8.79
263.939	8.83
264.316	8.82
264.693	8.74
265.07	8.71
265.448	8.69
265.825	8.65
266.202	8.61
266.579	8.68
266.956	8.83
267.333	8.8
267.709	8.77
268.086	8.57
268.463	8.57
268.84	8.66
269.216	8.7
269.593	8.66
269.97	8.66
270.346	8.72
270.723	8.66
271.099	8.56
271.476	8.56
271.852	8.58
272.229	8.69
272.605	8.78
272.981	8.79
273.358	8.78
273.734	8.8
274.11	8.79
274.486	8.81
274.862	8.95
275.238	8.9
275.614	8.85
275.99	8.81
276.366	8.82
276.742	8.67
277.118	8.62
277.494	8.67
277.87	8.73
278.245	8.89
278.621	8.85
278.997	8.8
279.372	8.82
279.748	8.83
280.123	8.89
280.499	8.85
280.874	8.86
281.25	8.87
281.625	8.8
282	8.76
282.376	8.7
282.751	8.66
283.126	8.59
283.501	8.61
283.876	8.62
284.252	8.59
284.627	8.58
285.002	8.61
285.377	8.59
285.751	8.6
286.126	8.64
286.501	8.59
286.876	8.62
287.251	8.59
287.625	8.61
288	8.54
288.375	8.48
288.749	8.45
289.124	8.46
289.498	8.45
289.873	8.41
290.247	8.35
290.622	8.29
290.996	8.26
291.37	8.24
291.745	8.13
292.119	8.18
292.493	8.26
292.867	8.3
293.241	8.34
293.616	8.32
293.99	8.31
294.364	8.27
294.737	8.3
295.111	8.24
295.485	8.27
295.859	8.34
296.233	8.25
296.607	8.17
296.98	8.21
297.354	8.21
297.728	8.26
298.101	8.3
298.475	8.29
298.848	8.3
299.222	8.34
299.595	8.32
299.968	8.27
300.342	8.33
300.715	8.34
301.088	8.21
301.462	7.97
301.835	7.83
302.208	7.69
302.581	7.77
302.954	7.76
303.327	7.75
303.7	7.7
304.073	7.7
304.446	7.65
304.819	7.66
305.192	7.64
305.564	7.79
305.937	7.85
306.31	7.88
306.682	7.81
307.055	7.81
307.428	7.77
307.8	7.71
308.173	7.67
308.545	7.7
308.917	7.62
309.29	7.51
309.662	7.38
310.034	7.37
310.407	7.3
310.779	7.14
311.151	7.12
311.523	7.14
311.895	7.26
312.267	7.32
312.639	7.23
313.011	7.18
313.383	7.28
313.755	7.28
314.127	7.2
314.498	7.16
314.87	7.13
315.242	7.06
315.614	6.96
315.985	6.81
316.357	6.65
316.728	6.6
317.1	6.58
317.471	6.53
317.843	6.55
318.214	6.47
318.585	6.47
318.957	6.52
319.328	6.5
319.699	6.4
320.07	6.36
320.441	6.33
320.813	6.33
321.184	6.3
321.555	6.23
321.926	6.23
322.297	6.3
322.667	6.26
323.038	6.25
323.409	6.27
323.78	6.25
324.151	6.22
324.521	6.2
324.892	6.18
325.262	6.13
325.633	6.12
326.004	6.08
326.374	6.05
326.744	6
327.115	5.9
327.485	5.77
327.855	5.75
328.226	5.7
328.596	5.65
328.966	5.62
329.336	5.59
329.706	5.56
330.076	5.4
330.447	5.29
330.816	5.23
331.186	5.2
331.556	5.17
331.926	5.17
332.296	5.17
332.666	5.18
333.036	5.11
333.405	5.09
333.775	5.01
334.144	5.02
334.514	4.95
334.884	4.88
335.253	4.81
335.623	4.78
335.992	4.75
336.361	4.72
336.731	4.67
337.1	4.57
337.469	4.46
337.838	4.36
338.208	4.35
338.577	4.33
338.946	4.3
339.315	4.35
339.684	4.26
340.053	4.23
340.422	4.15
340.79	4.01
341.159	3.97
341.528	3.93
341.897	3.94
342.266	3.87
342.634	3.86
343.003	3.91
343.371	3.76
343.74	3.73
344.108	3.68
344.477	3.56
344.845	3.64
345.214	3.6
345.582	3.62
345.95	3.55
346.319	3.48
346.687	3.38
347.055	3.35
347.423	3.34
347.791	3.3
348.159	3.26
348.527	3.37
348.895	3.26
349.263	3.32
349.631	3.31
349.999	3.29
350.367	3.3
350.734	3.29
351.102	3.24
351.47	3.28
351.837	3.24
352.205	3.25
352.573	3.1
352.94	3.09
353.308	3.02
353.675	2.97
354.042	3.03
354.41	3
354.777	2.95
355.144	2.85
355.511	2.83
355.879	2.85
356.246	2.78
356.613	2.8
356.98	2.75
357.347	2.8
357.714	2.69
358.081	2.64
358.448	2.6
358.815	2.63
359.181	2.66
359.548	2.62
359.915	2.53
360.282	2.53
360.648	2.47
361.015	2.43
361.381	2.44
361.748	2.52
362.114	2.46
362.481	2.49
362.847	2.42
363.214	2.46
363.58	2.42
363.946	2.51
364.312	2.39
364.678	2.4
365.045	2.51
365.411	2.46
365.777	2.39
366.143	2.43
366.509	2.33
366.875	2.34
367.241	2.29
367.606	2.33
367.972	2.25
368.338	2.28
368.704	2.29
369.069	2.23
369.435	2.22
369.801	2.17
370.166	2.18
370.532	2.25
370.897	2.27
371.263	2.23
371.628	2.23
371.993	2.22
372.359	2.25
372.724	2.19
373.089	2.11
373.454	2.03
373.82	2.06
374.185	1.96
374.55	1.91
374.915	1.9
375.28	1.85
375.645	1.78
376.01	1.8
376.374	1.84
376.739	1.85
377.104	1.9
377.469	1.96
377.833	1.99
378.198	2.06
378.563	2.14
378.927	2.07
379.292	2.13
379.656	2.17
380.021	2.09
380.385	2.01
380.749	2.04
381.114	2.02
381.478	1.99
381.842	1.98
382.206	1.97
382.571	1.93
382.935	1.9
383.299	1.85
383.663	1.79
384.027	1.82
384.391	1.84
384.755	1.82
385.118	1.83
385.482	1.79
385.846	1.8
386.21	1.76
386.573	1.72
386.937	1.75
387.301	1.8
387.664	1.8
388.028	1.83
388.391	1.8
388.755	1.73
389.118	1.64
389.481	1.67
389.845	1.64
390.208	1.61
390.571	1.61
390.934	1.65
391.298	1.63
391.661	1.66
392.024	1.64
392.387	1.71
392.75	1.73
393.113	1.78
393.476	1.81
393.838	1.84
394.201	1.83
394.564	1.86
394.927	1.8
395.289	1.77
395.652	1.76
396.015	1.75
396.377	1.69
396.74	1.75
397.102	1.8
397.465	1.75
397.827	1.74
398.189	1.72
398.552	1.7
398.914	1.68
399.276	1.71
399.638	1.73
400	1.75
400.363	1.77
400.725	1.72
401.087	1.62
401.449	1.7
401.81	1.67
402.172	1.81
402.534	1.84
402.896	1.94
403.258	1.98
403.619	2
403.981	1.99
404.343	1.99
404.704	1.99
405.066	1.99
405.427	1.91
405.789	1.91
406.15	1.83
406.512	1.72
406.873	1.69
407.234	1.64
407.596	1.59
407.957	1.56
408.318	1.55
408.679	1.55
409.04	1.66
409.401	1.7
409.762	1.64
410.123	1.62
410.484	1.71
410.845	1.68
411.206	1.69
411.567	1.68
411.927	1.71
412.288	1.73
412.649	2.25
413.009	2.27
413.37	2.25
413.731	2.28
414.091	2.25
414.452	2.23
414.812	2.23
415.172	2.23
415.533	2.27
415.893	2.26
416.253	2.21
416.613	1.71
416.974	1.7
417.334	1.66
417.694	1.69
418.054	1.68
418.414	1.63
418.774	1.63
419.134	1.63
419.494	1.61
419.853	1.59
420.213	1.61
420.573	1.63
420.933	1.58
421.292	1.65
421.652	1.62
422.011	1.69
422.371	1.71
422.73	1.76
423.09	1.75
423.449	1.7
423.809	1.73
424.168	1.71
424.527	1.69
424.887	1.7
425.246	1.64
425.605	1.66
425.964	1.62
426.323	1.64
426.682	1.56
427.041	1.59
427.4	1.62
427.759	1.62
428.118	1.61
428.477	1.66
428.835	1.65
429.194	1.66
429.553	1.68
429.911	1.7
430.27	1.7
430.629	1.77
430.987	1.74
431.346	1.72
431.704	1.69
432.062	1.72
432.421	1.67
432.779	1.73
433.137	1.74
433.496	1.75
433.854	1.79
434.212	1.79
434.57	1.8
434.928	1.81
435.286	1.86
435.644	1.87
436.002	1.88
436.36	1.87
436.718	1.76
437.075	1.79
437.433	1.76
437.791	1.7
438.149	1.71
438.506	1.64
438.864	1.64
439.221	1.61
439.579	1.63
439.936	1.62
440.294	1.65
440.651	1.68
441.009	1.63
441.366	1.63
441.723	1.65
442.08	1.67
442.437	1.68
442.795	1.68
443.152	1.73
443.509	1.72
443.866	1.73
444.223	1.72
444.58	1.75
444.936	1.8
445.293	1.81
445.65	1.86
446.007	1.85
446.363	1.89
446.72	1.91
447.077	1.89
447.433	1.85
447.79	1.89
448.146	1.89
448.503	1.91
448.859	1.89
449.215	1.93
449.572	1.93
449.928	1.95
450.284	1.95
450.641	1.92
450.997	1.96
451.353	1.98
451.709	1.98
452.065	2
452.421	1.97
452.777	1.97
453.133	1.96
453.488	1.89
453.844	1.96
454.2	1.95
454.556	1.99
454.911	2.02
455.267	2.05
455.623	2.03
455.978	2.03
456.334	2.08
456.689	2.11
457.045	2.08
457.4	2.13
457.755	2.01
458.111	2.04
458.466	2.04
458.821	2
459.176	1.94
459.531	1.99
459.886	1.96
460.242	1.94
460.597	1.93
460.951	1.96
461.306	1.99
461.661	2.07
462.016	2.07
462.371	2.1
462.726	2.15
463.08	2.25
463.435	2.18
463.79	2.21
464.144	2.22
464.499	2.26
464.853	2.28
465.208	2.27
465.562	2.32
465.916	2.32
466.271	2.27
466.625	2.25
466.979	2.21
467.333	2.26
467.688	2.3
468.042	2.29
468.396	2.25
468.75	2.2
469.104	2.22
469.458	2.18
469.811	2.19
470.165	2.26
470.519	2.29
470.873	2.29
471.227	2.3
471.58	2.32
471.934	2.35
472.287	2.34
472.641	2.34
472.995	2.34
473.348	2.34
473.701	2.34
474.055	2.3
474.408	2.29
474.761	2.28
475.115	2.28
475.468	2.28
475.821	2.34
476.174	2.41
476.527	2.47
476.88	2.48
477.233	2.5
477.586	2.51
477.939	2.55
478.292	2.52
478.645	2.52
478.998	2.51
479.35	2.5
479.703	2.44
480.056	2.45
480.408	2.43
480.761	2.43
481.113	2.44
481.466	2.49
481.818	2.46
482.171	2.5
482.523	2.58
482.875	2.67
483.228	2.73
483.58	2.76
483.932	2.76
484.284	2.79
484.636	2.82
484.988	2.84
485.34	2.89
485.692	2.92
486.044	2.93
486.396	2.95
486.748	2.93
487.1	2.95
487.451	2.98
487.803	2.99
488.155	3.01
488.506	3.04
488.858	3.05
489.209	3
489.561	3.02
489.912	3.05
490.264	3.08
490.615	3.08
490.966	3.11
491.318	3.13
491.669	3.13
492.02	3.14
492.371	3.12
492.722	3.13
493.073	3.18
493.424	3.22
493.775	3.17
494.126	3.16
494.477	3.19
494.828	3.16
495.179	3.17
495.53	3.22
495.88	3.24
496.231	3.27
496.582	3.3
496.932	3.32
497.283	3.29
497.633	3.33
497.984	3.4
498.334	3.41
498.684	3.37
499.035	3.37
499.385	3.38
499.735	3.41
500.086	3.45
500.436	3.47
500.786	3.49
501.136	3.54
501.486	3.6
501.836	3.62
502.186	3.65
502.536	3.72
502.886	3.78
503.235	3.8
503.585	3.89
503.935	3.85
504.285	3.87
504.634	3.95
504.984	3.98
505.333	3.99
505.683	3.99
506.032	3.99
506.382	4.01
506.731	3.99
507.08	4.03
507.43	3.99
507.779	4.11
508.128	4.11
508.477	4.07
508.826	4.12
509.176	4.14
509.525	4.14
509.874	4.16
510.222	4.23
510.571	4.28
510.92	4.3
511.269	4.34
511.618	4.34
511.967	4.37
512.315	4.47
512.664	4.46
513.012	4.5
513.361	4.56
513.71	4.62
514.058	4.7
514.406	4.73
514.755	4.73
515.103	4.77
515.451	4.8
515.8	4.85
516.148	4.83
516.496	4.9
516.844	4.98
517.192	5.02
517.54	5.03
517.888	5.03
518.236	5.08
518.584	5.18
518.932	5.18
519.28	5.24
519.628	5.3
519.975	5.35
520.323	5.41
520.671	5.42
521.018	5.44
521.366	5.5
521.713	5.51
522.061	5.56
522.408	5.6
522.756	5.69
523.103	5.7
523.45	5.76
523.798	5.81
524.145	5.84
524.492	5.86
524.839	5.96
525.186	6.11
525.533	6.14
525.88	6.14
526.227	6.18
526.574	6.27
526.921	6.33
527.268	6.39
527.615	6.44
527.961	6.47
528.308	6.56
528.655	6.58
529.001	6.55
529.348	6.62
529.694	6.68
530.041	6.72
530.387	6.75
530.734	6.88
531.08	6.92
531.426	6.94
531.773	7.07
532.119	7.11
532.465	7.13
532.811	7.17
533.157	7.25
533.503	7.34
533.849	7.39
534.195	7.41
534.541	7.45
534.887	7.47
535.233	7.5
535.579	7.53
535.924	7.61
536.27	7.64
536.616	7.69
536.961	7.74
537.307	7.76
537.652	7.8
537.998	7.83
538.343	7.86
538.689	7.95
539.034	8.07
539.379	8.09
539.725	8.13
540.07	8.28
540.415	8.41
540.76	8.48
541.105	8.56
541.45	8.71
541.795	8.77
542.14	8.84
542.485	8.9
542.83	8.9
543.175	8.95
543.519	8.92
543.864	8.9
544.209	8.9
544.554	8.94
544.898	8.99
545.243	9
545.587	9.08
545.932	9.1
546.276	9.15
546.621	9.21
546.965	9.29
547.309	9.39
547.653	9.5
547.998	9.56
548.342	9.65
548.686	9.69
549.03	9.75
549.374	9.82
549.718	9.87
550.062	9.82
550.406	9.86
550.75	9.86
551.094	9.96
551.437	9.97
551.781	10.03
552.125	10.06
552.468	10.18
552.812	10.25
553.156	10.28
553.499	10.3
553.843	10.48
554.186	10.6
554.529	10.69
554.873	10.7
555.216	10.76
555.559	10.77
555.902	10.77
556.246	10.74
556.589	10.76
556.932	10.81
557.275	10.88
557.618	10.93
557.961	11.03
558.304	11.08
558.646	11.19
558.989	11.21
559.332	11.28
559.675	11.33
560.017	11.39
560.36	11.41
560.703	11.51
561.045	11.56
561.388	11.57
561.73	11.55
562.073	11.6
562.415	11.6
562.757	11.69
563.1	11.74
563.442	11.83
563.784	11.89
564.126	11.95
564.468	11.99
564.81	11.99
565.152	12.1
565.494	12.13
565.836	12.13
566.178	12.21
566.52	12.22
566.862	12.34
567.204	12.39
567.545	12.44
567.887	12.48
568.229	12.49
568.57	12.57
568.912	12.57
569.253	12.63
569.595	12.67
569.936	12.66
570.277	12.69
570.619	12.68
570.96	12.73
571.301	12.75
571.642	12.78
571.984	12.83
572.325	12.88
572.666	12.88
573.007	12.88
573.348	12.96
573.689	13.02
574.03	13.04
574.37	13.06
574.711	13.08
575.052	13.1
575.393	13.14
575.733	13.15
576.074	13.15
576.414	13.18
576.755	13.26
577.095	13.28
577.436	13.33
577.776	13.39
578.117	13.41
578.457	13.44
578.797	13.49
579.137	13.53
579.478	13.56
579.818	13.57
580.158	13.62
580.498	13.61
580.838	13.63
581.178	13.65
581.518	13.66
581.858	13.73
582.197	13.75
582.537	13.79
582.877	13.8
583.217	13.86
583.556	13.92
583.896	13.93
584.235	13.99
584.575	14.02
584.914	14.03
585.254	14.05
585.593	14.07
585.933	14.11
586.272	14.12
586.611	14.2
586.95	14.23
587.289	14.26
587.629	14.33
587.968	14.37
588.307	14.43
588.646	14.5
588.985	14.57
589.323	14.62
589.662	14.7
590.001	14.74
590.34	14.75
590.679	14.79
591.017	14.86
591.356	14.89
591.695	14.97
592.033	14.98
592.372	15
592.71	15.05
593.048	15.11
593.387	15.1
593.725	15.16
594.063	15.22
594.402	15.26
594.74	15.31
595.078	15.35
595.416	15.35
595.754	15.46
596.092	15.52
596.43	15.56
596.768	15.58
597.106	15.65
597.444	15.69
597.781	15.74
598.119	15.76
598.457	15.8
598.795	15.83
599.132	15.88
599.47	15.84
599.807	15.86
600.145	15.93
600.482	15.98
600.82	16.04
601.157	16.04
601.494	16.05
601.831	16.13
602.169	16.12
602.506	16.16
602.843	16.21
603.18	16.25
603.517	16.31
603.854	16.3
604.191	16.33
604.528	16.34
604.865	16.38
605.202	16.46
605.538	16.49
605.875	16.55
606.212	16.6
606.548	16.62
606.885	16.7
607.222	16.72
607.558	16.73
607.895	16.82
608.231	16.83
608.567	16.88
608.904	16.86
609.24	16.88
609.576	16.9
609.912	16.95
610.248	17.02
610.585	17.08
610.921	17.12
611.257	17.21
611.593	17.23
611.929	17.33
612.264	17.37
612.6	17.45
612.936	17.48
613.272	17.53
613.608	17.54
613.943	17.55
614.279	17.51
614.614	17.58
614.95	17.6
615.285	17.62
615.621	17.61
615.956	17.61
616.292	17.67
616.627	17.76
616.962	17.84
617.297	17.9
617.632	17.94
617.968	18.02
618.303	18.05
618.638	18.08
618.973	18.11
619.308	18.19
619.643	18.27
619.977	18.3
620.312	18.38
620.647	18.38
620.982	18.35
621.316	18.42
621.651	18.48
621.986	18.52
622.32	18.6
622.655	18.66
622.989	18.66
623.324	18.74
623.658	18.75
623.992	18.72
624.326	18.79
624.661	18.96
624.995	18.97
625.329	19.06
625.663	19.16
625.997	19.18
626.331	19.23
626.665	19.28
626.999	19.26
627.333	19.33
627.667	19.35
628.001	19.36
628.334	19.31
628.668	19.36
629.002	19.31
629.335	19.3
629.669	19.33
630.002	19.37
630.336	19.45
630.669	19.54
631.003	19.61
631.336	19.7
631.669	19.68
632.003	19.81
632.336	19.84
632.669	19.93
633.002	20.01
633.335	20.03
633.668	20.11
634.001	20.16
634.334	20.22
634.667	20.25
635	20.29
635.333	20.42
635.665	20.47
635.998	20.54
636.331	20.64
636.663	20.68
636.996	20.83
637.328	20.87
637.661	20.93
637.993	21.01
638.326	21.11
638.658	21.16
638.99	21.13
639.323	21.09
639.655	21.17
639.987	21.14
640.319	21.16
640.651	21.19
640.983	21.33
641.315	21.31
641.647	21.28
641.979	21.27
642.311	21.28
642.643	21.4
642.975	21.52
643.306	21.54
643.638	21.65
643.97	21.73
644.301	21.79
644.633	21.73
644.964	21.84
645.296	21.92
645.627	21.98
645.959	22.06
646.29	22.2
646.621	22.22
646.952	22.31
647.284	22.32
647.615	22.34
647.946	22.34
648.277	22.41
648.608	22.43
648.939	22.51
649.27	22.65
649.601	22.61
649.931	22.55
650.262	22.61
650.593	22.62
650.924	22.59
651.254	22.69
651.585	22.69
651.915	22.65
652.246	22.71
652.576	22.75
652.907	22.69
653.237	22.81
653.568	22.88
653.898	22.9
654.228	22.86
654.558	22.84
654.888	22.75
655.219	22.77
655.549	22.73
655.879	22.56
656.209	22.42
656.539	22.26
656.868	22.13
657.198	22.01
657.528	21.91
657.858	21.83
658.188	21.76
658.517	21.71
658.847	21.65
659.176	21.57
659.506	21.51
659.835	21.42
660.165	21.36
660.494	21.31
660.824	21.26
661.153	21.23
661.482	21.22
661.811	21.25
662.14	21.24
662.47	21.24
662.799	21.31
663.128	21.44
663.457	21.6
663.786	21.78
664.114	22
664.443	22.26
664.772	22.49
665.101	22.76
665.43	22.94
665.758	23.18
666.087	23.48
666.415	23.68
666.744	23.82
667.072	24
667.401	24.22
667.729	24.39
668.058	24.47
668.386	24.51
668.714	24.5
669.042	24.57
669.371	24.62
669.699	24.69
670.027	24.74
670.355	24.78
670.683	24.72
671.011	24.68
671.339	24.71
671.666	24.79
671.994	24.81
672.322	24.91
672.65	24.82
672.977	24.9
673.305	24.8
673.633	24.87
673.96	24.88
674.288	25
674.615	25.04
674.943	24.94
675.27	24.99
675.597	24.99
675.924	25.01
676.252	25.12
676.579	24.98
676.906	25.04
677.233	25
677.56	25.06
677.887	25.11
678.214	25.13
678.541	25.2
678.868	25.13
679.195	25.18
679.521	25.15
679.848	25.2
680.175	25.42
680.501	25.39
680.828	25.5
681.154	25.5
681.481	25.53
681.807	25.56
682.134	25.61
682.46	25.61
682.787	25.7
683.113	25.79
683.439	25.8
683.765	25.78
684.091	25.89
684.417	25.94
684.743	26.01
685.069	26.02
685.395	26.03
685.721	26.02
686.047	26.12
686.373	26.04
686.699	26.04
687.024	26.08
687.35	26.15
687.676	26.16
688.001	26.1
688.327	26.12
688.652	26.15
688.978	26.21
689.303	26.26
689.629	26.26
689.954	26.33
690.279	26.28
690.604	26.23
690.93	26.16
691.255	26.24
691.58	26.32
691.905	26.35
692.23	26.46
692.555	26.45
692.88	26.48
693.204	26.58
693.529	26.59
693.854	26.67
694.179	26.74
694.503	26.88
694.828	26.87
695.153	26.88
695.477	26.89
695.802	26.86
696.126	26.96
696.451	27
696.775	27
697.099	27.1
697.423	27.18
697.748	27.14
698.072	27.08
698.396	27.11
698.72	27.08
699.044	27.06
699.368	27.03
699.692	26.99
700.016	26.95
700.34	26.96
700.664	26.99
700.987	27.01
701.311	27.11
701.635	27.16
701.958	27.12
702.282	27.26
702.606	27.37
702.929	27.48
703.252	27.47
703.576	27.55
703.899	27.57
