Data from battus_ven_HW_orange_left_2_Reflection__0__85.txt Node

Date: Mon Dec 12 10:46:54 EST 2022
User: abbyrobinson
Spectrometer: USB2G8287
Scans to average: 10
Trigger mode: 4
Integration Time (sec): 1.000000E-1
Electric dark correction enabled: true
Boxcar width: 5
XAxis mode: Wavelengths
Number of Pixels in Spectrum: 2048
>>>>>Begin Spectral Data<<<<<
177.272	100.68
177.658	103.89
178.044	106.3
178.43	99.44
178.816	119.54
179.203	112.24
179.589	96.63
179.975	83.77
180.361	67.8
180.747	73.05
181.133	87.36
181.519	92.87
181.904	103.89
182.29	115.83
182.676	121.28
183.062	164.52
183.447	168.9
183.833	155.49
184.219	191.09
184.604	338.39
184.99	-6621.87
185.375	-353.47
185.761	-158.68
186.146	-79.91
186.531	-69.08
186.917	-69.48
187.302	-33.79
187.687	-32.51
188.073	-29.2
188.458	-32.08
188.843	-30.22
189.228	-31.6
189.613	-39.52
189.998	-34.94
190.383	-39.27
190.768	-43.75
191.153	-27.82
191.538	-23.99
191.923	-10.64
192.307	-14.95
192.692	-16.64
193.077	-21.77
193.461	-22.63
193.846	-16.58
194.231	-15.76
194.615	-20.71
195	-19.84
195.384	-37.05
195.769	-38.18
196.153	-39.07
196.537	-32.15
196.922	-31.49
197.306	-16.35
197.69	-13.37
198.074	-17.83
198.458	-23.67
198.843	-16.71
199.227	-14.62
199.611	-19.99
199.995	-15.59
200.379	-37.95
200.763	-34.24
201.146	-28.6
201.53	-48.71
201.914	-43.44
202.298	-39.93
202.681	-32.66
203.065	-25.01
203.449	-24.06
203.832	-22.15
204.216	-34.53
204.599	44.62
204.983	45.48
205.366	47.77
205.75	51.33
206.133	50.06
206.516	51.38
206.9	48.46
207.283	44.35
207.666	43.35
208.049	45.53
208.432	51.3
208.815	-5.05
209.198	-25.4
209.581	-41.33
209.964	-38.39
210.347	-48.01
210.73	-42.73
211.113	-36.6
211.496	-21.01
211.879	-19.38
212.261	-32.46
212.644	-42.26
213.027	-36.56
213.409	-25.86
213.792	-27.34
214.174	-29.31
214.557	-18.54
214.939	-26.66
215.322	-28.3
215.704	-31.1
216.086	-26.81
216.469	-16
216.851	-17.56
217.233	-25.21
217.615	-34.93
217.997	-27.67
218.379	-24.42
218.761	-24.61
219.143	-12
219.525	-17.59
219.907	-14.26
220.289	-11.08
220.671	-11.23
221.053	-10.8
221.435	-8.91
221.816	-5.99
222.198	-6.16
222.58	-3.1
222.961	-3.52
223.343	-9.25
223.724	-5.78
224.106	-13.93
224.487	-16.4
224.869	-17.46
225.25	-21.72
225.631	-24.9
226.013	-17.44
226.394	-16.5
226.775	-22.55
227.156	-23.26
227.537	-23.6
227.919	-23.54
228.3	-13.76
228.681	-12.73
229.062	-13.58
229.442	-11.36
229.823	-8.29
230.204	-10.2
230.585	-9.96
230.966	-5.31
231.347	-3.82
231.727	-2.91
232.108	-1.71
232.488	-2.96
232.869	-2.14
233.25	-1.84
233.63	-0.51
234.01	0.07
234.391	0.73
234.771	2.3
235.152	2.75
235.532	1.9
235.912	2.9
236.292	3.09
236.672	2.97
237.053	3.16
237.433	3.93
237.813	4.14
238.193	4.01
238.573	4.04
238.953	3.85
239.333	3.2
239.712	3.59
240.092	3.28
240.472	3.45
240.852	3.81
241.231	4.02
241.611	3.83
241.991	4.03
242.37	4.27
242.75	4.57
243.129	4.8
243.509	5.21
243.888	5.2
244.267	5.5
244.647	5.48
245.026	5.38
245.405	5.41
245.784	5.51
246.164	5.36
246.543	5.3
246.922	4.93
247.301	4.92
247.68	4.94
248.059	5.25
248.438	5.2
248.817	5.17
249.195	5.23
249.574	5.22
249.953	5.19
250.332	5.19
250.71	5.35
251.089	5.62
251.468	5.61
251.846	5.46
252.225	5.36
252.603	5.3
252.982	5.46
253.36	5.56
253.738	5.74
254.117	5.81
254.495	5.89
254.873	5.9
255.251	5.85
255.63	5.9
256.008	5.99
256.386	6
256.764	6.04
257.142	6.02
257.52	5.9
257.898	5.76
258.276	5.73
258.653	5.79
259.031	5.76
259.409	5.87
259.787	5.89
260.164	5.96
260.542	5.95
260.92	5.99
261.297	5.99
261.675	6.01
262.052	6.07
262.43	6.12
262.807	6.11
263.184	6.09
263.562	5.99
263.939	5.99
264.316	5.98
264.693	5.94
265.07	5.97
265.448	5.96
265.825	6
266.202	5.91
266.579	5.87
266.956	5.86
267.333	5.91
267.709	5.97
268.086	5.9
268.463	5.91
268.84	5.96
269.216	5.96
269.593	5.9
269.97	5.95
270.346	5.99
270.723	6.07
271.099	6.1
271.476	6.05
271.852	6.04
272.229	6.06
272.605	6.06
272.981	6.09
273.358	6.01
273.734	6.05
274.11	6.01
274.486	6.01
274.862	6.03
275.238	5.99
275.614	6
275.99	6
276.366	6.09
276.742	6.02
277.118	5.93
277.494	6.01
277.87	6.02
278.245	6.07
278.621	6.08
278.997	6.03
279.372	6.04
279.748	6.03
280.123	6.05
280.499	6
280.874	6.07
281.25	6.09
281.625	6.12
282	6.11
282.376	6.2
282.751	6.2
283.126	6.26
283.501	6.28
283.876	6.31
284.252	6.4
284.627	6.33
285.002	6.31
285.377	6.31
285.751	6.41
286.126	6.4
286.501	6.37
286.876	6.46
287.251	6.45
287.625	6.57
288	6.57
288.375	6.52
288.749	6.6
289.124	6.64
289.498	6.68
289.873	6.6
290.247	6.73
290.622	6.69
290.996	6.7
291.37	6.75
291.745	6.64
292.119	6.76
292.493	6.83
292.867	6.94
293.241	7.07
293.616	7.18
293.99	7.29
294.364	7.34
294.737	7.31
295.111	7.26
295.485	7.22
295.859	7.33
296.233	7.3
296.607	7.24
296.98	7.32
297.354	7.27
297.728	7.33
298.101	7.21
298.475	7.17
298.848	7.2
299.222	7.25
299.595	7.23
299.968	7.21
300.342	7.29
300.715	7.28
301.088	7.16
301.462	7.14
301.835	7.03
302.208	7.06
302.581	7.14
302.954	7.27
303.327	7.25
303.7	7.39
304.073	7.38
304.446	7.37
304.819	7.51
305.192	7.63
305.564	7.71
305.937	7.82
306.31	7.94
306.682	7.98
307.055	7.99
307.428	8.08
307.8	8.05
308.173	8.1
308.545	8.09
308.917	8.06
309.29	7.95
309.662	7.91
310.034	7.98
310.407	7.92
310.779	7.82
311.151	7.73
311.523	7.78
311.895	7.85
312.267	7.9
312.639	7.84
313.011	7.8
313.383	7.9
313.755	7.95
314.127	7.84
314.498	7.86
314.87	7.83
315.242	7.93
315.614	7.82
315.985	7.68
316.357	7.64
316.728	7.84
317.1	7.88
317.471	7.84
317.843	7.84
318.214	7.84
318.585	7.88
318.957	7.92
319.328	7.95
319.699	8.03
320.07	8.21
320.441	8.27
320.813	8.19
321.184	8.22
321.555	8.22
321.926	8.2
322.297	8.25
322.667	8.27
323.038	8.29
323.409	8.33
323.78	8.24
324.151	8.24
324.521	8.24
324.892	8.24
325.262	8.23
325.633	8.26
326.004	8.26
326.374	8.28
326.744	8.23
327.115	8.23
327.485	8.18
327.855	8.29
328.226	8.16
328.596	8.21
328.966	8.18
329.336	8.19
329.706	8.25
330.076	8.23
330.447	8.28
330.816	8.33
331.186	8.37
331.556	8.34
331.926	8.35
332.296	8.42
332.666	8.33
333.036	8.28
333.405	8.29
333.775	8.2
334.144	8.2
334.514	8.09
334.884	8.03
335.253	8.03
335.623	8.12
335.992	8.13
336.361	8.25
336.731	8.26
337.1	8.29
337.469	8.28
337.838	8.26
338.208	8.4
338.577	8.4
338.946	8.35
339.315	8.38
339.684	8.27
340.053	8.22
340.422	8.16
340.79	8.06
341.159	8.03
341.528	8.02
341.897	8.05
342.266	7.94
342.634	7.95
343.003	8.06
343.371	7.94
343.74	7.91
344.108	7.86
344.477	7.72
344.845	7.7
345.214	7.66
345.582	7.57
345.95	7.54
346.319	7.42
346.687	7.41
347.055	7.34
347.423	7.34
347.791	7.18
348.159	7.12
348.527	7.19
348.895	7.16
349.263	7.24
349.631	7.25
349.999	7.21
350.367	7.29
350.734	7.25
351.102	7.23
351.47	7.21
351.837	7.27
352.205	7.27
352.573	7.17
352.94	7.16
353.308	7.15
353.675	7.19
354.042	7.15
354.41	7.06
354.777	6.93
355.144	6.85
355.511	6.81
355.879	6.74
356.246	6.68
356.613	6.67
356.98	6.68
357.347	6.58
357.714	6.44
358.081	6.38
358.448	6.29
358.815	6.34
359.181	6.25
359.548	6.25
359.915	6.2
360.282	6.22
360.648	6.1
361.015	5.95
361.381	5.94
361.748	5.9
362.114	5.88
362.481	5.87
362.847	5.77
363.214	5.79
363.58	5.64
363.946	5.69
364.312	5.58
364.678	5.59
365.045	5.68
365.411	5.59
365.777	5.46
366.143	5.42
366.509	5.37
366.875	5.33
367.241	5.24
367.606	5.23
367.972	5.12
368.338	5.06
368.704	4.94
369.069	4.87
369.435	4.92
369.801	4.92
370.166	4.93
370.532	4.92
370.897	4.97
371.263	4.92
371.628	4.93
371.993	4.9
372.359	4.89
372.724	4.88
373.089	4.81
373.454	4.67
373.82	4.65
374.185	4.56
374.55	4.5
374.915	4.45
375.28	4.36
375.645	4.29
376.01	4.31
376.374	4.3
376.739	4.26
377.104	4.26
377.469	4.28
377.833	4.28
378.198	4.29
378.563	4.3
378.927	4.25
379.292	4.28
379.656	4.25
380.021	4.12
380.385	4.13
380.749	4.16
381.114	4.05
381.478	3.97
381.842	3.95
382.206	3.88
382.571	3.86
382.935	3.76
383.299	3.71
383.663	3.7
384.027	3.76
384.391	3.68
384.755	3.7
385.118	3.73
385.482	3.72
385.846	3.68
386.21	3.63
386.573	3.59
386.937	3.61
387.301	3.65
387.664	3.63
388.028	3.66
388.391	3.66
388.755	3.63
389.118	3.57
389.481	3.59
389.845	3.6
390.208	3.68
390.571	3.64
390.934	3.69
391.298	3.71
391.661	3.71
392.024	3.67
392.387	3.66
392.75	3.58
393.113	3.57
393.476	3.55
393.838	3.56
394.201	3.47
394.564	3.48
394.927	3.37
395.289	3.33
395.652	3.28
396.015	3.31
396.377	3.3
396.74	3.36
397.102	3.43
397.465	3.46
397.827	3.48
398.189	3.55
398.552	3.6
398.914	3.61
399.276	3.61
399.638	3.73
400	3.71
400.363	3.71
400.725	3.65
401.087	3.59
401.449	3.58
401.81	3.52
402.172	3.53
402.534	3.51
402.896	3.56
403.258	3.57
403.619	3.51
403.981	3.56
404.343	3.53
404.704	3.56
405.066	3.59
405.427	3.61
405.789	3.7
406.15	3.69
406.512	3.6
406.873	3.57
407.234	3.56
407.596	3.57
407.957	3.48
408.318	3.51
408.679	3.44
409.04	3.49
409.401	3.5
409.762	3.37
410.123	3.36
410.484	3.45
410.845	3.44
411.206	3.43
411.567	3.43
411.927	3.44
412.288	3.44
412.649	3.97
413.009	3.97
413.37	3.95
413.731	3.98
414.091	3.93
414.452	3.91
414.812	3.89
415.172	3.88
415.533	3.9
415.893	3.92
416.253	3.91
416.613	3.43
416.974	3.41
417.334	3.4
417.694	3.42
418.054	3.41
418.414	3.45
418.774	3.45
419.134	3.45
419.494	3.38
419.853	3.36
420.213	3.35
420.573	3.32
420.933	3.28
421.292	3.28
421.652	3.22
422.011	3.28
422.371	3.24
422.73	3.33
423.09	3.4
423.449	3.4
423.809	3.46
424.168	3.5
424.527	3.59
424.887	3.62
425.246	3.57
425.605	3.62
425.964	3.64
426.323	3.69
426.682	3.59
427.041	3.61
427.4	3.64
427.759	3.64
428.118	3.65
428.477	3.62
428.835	3.65
429.194	3.69
429.553	3.68
429.911	3.67
430.27	3.66
430.629	3.75
430.987	3.78
431.346	3.74
431.704	3.71
432.062	3.73
432.421	3.72
432.779	3.75
433.137	3.78
433.496	3.82
433.854	3.8
434.212	3.75
434.57	3.78
434.928	3.67
435.286	3.68
435.644	3.75
436.002	3.77
436.36	3.8
436.718	3.71
437.075	3.7
437.433	3.67
437.791	3.66
438.149	3.67
438.506	3.58
438.864	3.63
439.221	3.66
439.579	3.67
439.936	3.62
440.294	3.6
440.651	3.65
441.009	3.67
441.366	3.67
441.723	3.68
442.08	3.76
442.437	3.82
442.795	3.83
443.152	3.85
443.509	3.79
443.866	3.79
444.223	3.83
444.58	3.84
444.936	3.84
445.293	3.84
445.65	3.85
446.007	3.88
446.363	3.88
446.72	3.91
447.077	3.91
447.433	3.92
447.79	3.98
448.146	4
448.503	4.05
448.859	4.05
449.215	4.13
449.572	4.18
449.928	4.15
450.284	4.2
450.641	4.21
450.997	4.27
451.353	4.28
451.709	4.27
452.065	4.24
452.421	4.18
452.777	4.2
453.133	4.2
453.488	4.14
453.844	4.17
454.2	4.18
454.556	4.2
454.911	4.22
455.267	4.29
455.623	4.29
455.978	4.35
456.334	4.43
456.689	4.43
457.045	4.39
457.4	4.43
457.755	4.39
458.111	4.39
458.466	4.34
458.821	4.32
459.176	4.3
459.531	4.34
459.886	4.28
460.242	4.28
460.597	4.28
460.951	4.27
461.306	4.31
461.661	4.34
462.016	4.29
462.371	4.39
462.726	4.37
463.08	4.38
463.435	4.34
463.79	4.37
464.144	4.35
464.499	4.37
464.853	4.4
465.208	4.43
465.562	4.52
465.916	4.55
466.271	4.54
466.625	4.59
466.979	4.64
467.333	4.74
467.688	4.74
468.042	4.81
468.396	4.84
468.75	4.87
469.104	4.87
469.458	4.83
469.811	4.91
470.165	4.95
470.519	4.95
470.873	4.96
471.227	4.93
471.58	4.97
471.934	4.92
472.287	4.93
472.641	4.94
472.995	4.96
473.348	5
473.701	5.03
474.055	4.98
474.408	5.02
474.761	5.05
475.115	5.05
475.468	5.04
475.821	5.14
476.174	5.22
476.527	5.33
476.88	5.34
477.233	5.34
477.586	5.33
477.939	5.41
478.292	5.44
478.645	5.44
478.998	5.46
479.35	5.52
479.703	5.52
480.056	5.54
480.408	5.53
480.761	5.57
481.113	5.62
481.466	5.64
481.818	5.67
482.171	5.69
482.523	5.75
482.875	5.85
483.228	5.92
483.58	5.96
483.932	5.98
484.284	6
484.636	6.01
484.988	6.08
485.34	6.15
485.692	6.19
486.044	6.23
486.396	6.23
486.748	6.23
487.1	6.26
487.451	6.26
487.803	6.27
488.155	6.31
488.506	6.36
488.858	6.39
489.209	6.37
489.561	6.41
489.912	6.43
490.264	6.45
490.615	6.49
490.966	6.53
491.318	6.6
491.669	6.64
492.02	6.67
492.371	6.75
492.722	6.75
493.073	6.84
493.424	6.9
493.775	6.95
494.126	7.02
494.477	7.1
494.828	7.15
495.179	7.21
495.53	7.3
495.88	7.33
496.231	7.32
496.582	7.38
496.932	7.41
497.283	7.44
497.633	7.51
497.984	7.59
498.334	7.61
498.684	7.61
499.035	7.66
499.385	7.68
499.735	7.73
500.086	7.8
500.436	7.83
500.786	7.92
501.136	7.94
501.486	8
501.836	8.06
502.186	8.14
502.536	8.22
502.886	8.2
503.235	8.3
503.585	8.39
503.935	8.4
504.285	8.45
504.634	8.56
504.984	8.63
505.333	8.66
505.683	8.71
506.032	8.71
506.382	8.76
506.731	8.86
507.08	8.93
507.43	8.96
507.779	9.1
508.128	9.18
508.477	9.19
508.826	9.33
509.176	9.45
509.525	9.56
509.874	9.61
510.222	9.74
510.571	9.88
510.92	9.95
511.269	10.06
511.618	10.14
511.967	10.2
512.315	10.34
512.664	10.33
513.012	10.32
513.361	10.35
513.71	10.48
514.058	10.55
514.406	10.62
514.755	10.63
515.103	10.69
515.451	10.78
515.8	10.93
516.148	10.96
516.496	11.06
516.844	11.22
517.192	11.3
517.54	11.36
517.888	11.46
518.236	11.54
518.584	11.71
518.932	11.82
519.28	11.85
519.628	11.88
519.975	11.97
520.323	12.15
520.671	12.23
521.018	12.32
521.366	12.49
521.713	12.55
522.061	12.63
522.408	12.72
522.756	12.85
523.103	12.99
523.45	13.14
523.798	13.3
524.145	13.32
524.492	13.39
524.839	13.56
525.186	13.65
525.533	13.76
525.88	13.88
526.227	13.99
526.574	14.15
526.921	14.29
527.268	14.35
527.615	14.39
527.961	14.55
528.308	14.69
528.655	14.85
529.001	14.95
529.348	15.08
529.694	15.23
530.041	15.37
530.387	15.44
530.734	15.53
531.08	15.65
531.426	15.82
531.773	15.99
532.119	16.17
532.465	16.27
532.811	16.35
533.157	16.51
533.503	16.63
533.849	16.73
534.195	16.86
534.541	17.05
534.887	17.23
535.233	17.37
535.579	17.48
535.924	17.55
536.27	17.7
536.616	17.89
536.961	18.08
537.307	18.25
537.652	18.45
537.998	18.58
538.343	18.68
538.689	18.9
539.034	19.1
539.379	19.25
539.725	19.46
540.07	19.6
540.415	19.74
540.76	19.87
541.105	19.99
541.45	20.16
541.795	20.33
542.14	20.47
542.485	20.59
542.83	20.65
543.175	20.77
543.519	20.81
543.864	20.92
544.209	21.03
544.554	21.07
544.898	21.2
545.243	21.29
545.587	21.4
545.932	21.54
546.276	21.63
546.621	21.72
546.965	21.81
547.309	22.04
547.653	22.21
547.998	22.34
548.342	22.51
548.686	22.7
549.03	22.85
549.374	22.95
549.718	23.08
550.062	23.16
550.406	23.24
550.75	23.36
551.094	23.45
551.437	23.57
551.781	23.72
552.125	23.88
552.468	24.01
552.812	24.13
553.156	24.3
553.499	24.45
553.843	24.64
554.186	24.87
554.529	25.04
554.873	25.15
555.216	25.25
555.559	25.36
555.902	25.45
556.246	25.54
556.589	25.63
556.932	25.73
557.275	25.81
557.618	25.99
557.961	26.17
558.304	26.3
558.646	26.4
558.989	26.49
559.332	26.59
559.675	26.74
560.017	26.9
560.36	27.03
560.703	27.22
561.045	27.37
561.388	27.42
561.73	27.46
562.073	27.54
562.415	27.73
562.757	27.87
563.1	28.05
563.442	28.12
563.784	28.2
564.126	28.31
564.468	28.37
564.81	28.44
565.152	28.57
565.494	28.67
565.836	28.82
566.178	28.92
566.52	29.04
566.862	29.2
567.204	29.33
567.545	29.41
567.887	29.47
568.229	29.64
568.57	29.83
568.912	29.9
569.253	30.09
569.595	30.2
569.936	30.35
570.277	30.53
570.619	30.61
570.96	30.78
571.301	31.02
571.642	31.18
571.984	31.37
572.325	31.53
572.666	31.73
573.007	31.86
573.348	31.97
573.689	32.07
574.03	32.2
574.37	32.34
574.711	32.42
575.052	32.53
575.393	32.66
575.733	32.69
576.074	32.8
576.414	32.87
576.755	32.93
577.095	33.06
577.436	33.18
577.776	33.26
578.117	33.34
578.457	33.48
578.797	33.53
579.137	33.61
579.478	33.64
579.818	33.67
580.158	33.78
580.498	33.85
580.838	33.99
581.178	34.09
581.518	34.15
581.858	34.21
582.197	34.28
582.537	34.37
582.877	34.47
583.217	34.66
583.556	34.77
583.896	34.85
584.235	34.98
584.575	35.04
584.914	35.09
585.254	35.21
585.593	35.3
585.933	35.41
586.272	35.5
586.611	35.57
586.95	35.58
587.289	35.69
587.629	35.79
587.968	35.87
588.307	35.95
588.646	36.06
588.985	36.14
589.323	36.22
589.662	36.28
590.001	36.38
590.34	36.42
590.679	36.53
591.017	36.58
591.356	36.62
591.695	36.66
592.033	36.73
592.372	36.78
592.71	36.82
593.048	36.9
593.387	36.95
593.725	36.97
594.063	37.08
594.402	37.18
594.74	37.33
595.078	37.47
595.416	37.54
595.754	37.63
596.092	37.72
596.43	37.82
596.768	37.92
597.106	38.03
597.444	38.12
597.781	38.17
598.119	38.19
598.457	38.26
598.795	38.25
599.132	38.35
599.47	38.36
599.807	38.43
600.145	38.49
600.482	38.61
600.82	38.69
601.157	38.77
601.494	38.87
601.831	39
602.169	39
602.506	39.1
602.843	39.2
603.18	39.3
603.517	39.38
603.854	39.44
604.191	39.5
604.528	39.56
604.865	39.58
605.202	39.66
605.538	39.71
605.875	39.82
606.212	39.9
606.548	39.94
606.885	40.01
607.222	40.06
607.558	40.16
607.895	40.14
608.231	40.16
608.567	40.3
608.904	40.31
609.24	40.36
609.576	40.36
609.912	40.43
610.248	40.48
610.585	40.57
610.921	40.62
611.257	40.68
611.593	40.81
611.929	40.88
612.264	40.86
612.6	40.96
612.936	41.01
613.272	41.11
613.608	41.12
613.943	41.17
614.279	41.25
614.614	41.36
614.95	41.36
615.285	41.38
615.621	41.5
615.956	41.64
616.292	41.73
616.627	41.77
616.962	41.84
617.297	41.96
617.632	41.99
617.968	41.97
618.303	42
618.638	42.1
618.973	42.17
619.308	42.13
619.643	42.1
619.977	42.11
620.312	42.23
620.647	42.26
620.982	42.22
621.316	42.31
621.651	42.38
621.986	42.43
622.32	42.44
622.655	42.44
622.989	42.47
623.324	42.52
623.658	42.49
623.992	42.47
624.326	42.46
624.661	42.58
624.995	42.64
625.329	42.66
625.663	42.63
625.997	42.69
626.331	42.76
626.665	42.83
626.999	42.89
627.333	42.93
627.667	42.92
628.001	42.92
628.334	42.91
628.668	42.88
629.002	42.87
629.335	42.95
629.669	42.88
630.002	42.9
630.336	42.9
630.669	42.94
631.003	42.98
631.336	43.07
631.669	43.12
632.003	43.21
632.336	43.26
632.669	43.29
633.002	43.25
633.335	43.31
633.668	43.3
634.001	43.32
634.334	43.35
634.667	43.45
635	43.54
635.333	43.63
635.665	43.53
635.998	43.49
636.331	43.5
636.663	43.56
636.996	43.63
637.328	43.68
637.661	43.76
637.993	43.69
638.326	43.68
638.658	43.64
638.99	43.58
639.323	43.63
639.655	43.74
639.987	43.82
640.319	43.82
640.651	43.92
640.983	43.97
641.315	43.93
641.647	44
641.979	43.96
642.311	44.05
642.643	44.11
642.975	44.15
643.306	44.2
643.638	44.19
643.97	44.3
644.301	44.24
644.633	44.32
644.964	44.34
645.296	44.39
645.627	44.52
645.959	44.42
646.29	44.54
646.621	44.6
646.952	44.58
647.284	44.63
647.615	44.62
647.946	44.66
648.277	44.59
648.608	44.68
648.939	44.69
649.27	44.76
649.601	44.93
649.931	44.84
650.262	44.96
650.593	45.05
650.924	45.11
651.254	45.13
651.585	45.21
651.915	45.28
652.246	45.31
652.576	45.42
652.907	45.39
653.237	45.37
653.568	45.49
653.898	45.5
654.228	45.48
654.558	45.55
654.888	45.71
655.219	45.97
655.549	46.47
655.879	47
656.209	47.6
656.539	48.2
656.868	48.72
657.198	49
657.528	49.24
657.858	49.45
658.188	49.61
658.517	49.72
658.847	49.74
659.176	49.76
659.506	49.75
659.835	49.7
660.165	49.61
660.494	49.51
660.824	49.42
661.153	49.33
661.482	49.19
661.811	49.06
662.14	48.89
662.47	48.79
662.799	48.66
663.128	48.58
663.457	48.5
663.786	48.4
664.114	48.27
664.443	48.2
664.772	48.12
665.101	48.13
665.43	48
665.758	47.99
666.087	47.82
666.415	47.68
666.744	47.47
667.072	47.35
667.401	47.35
667.729	47.3
668.058	47.32
668.386	47.33
668.714	47.28
669.042	47.28
669.371	47.27
669.699	47.31
670.027	47.42
670.355	47.36
670.683	47.34
671.011	47.26
671.339	47.3
671.666	47.35
671.994	47.46
672.322	47.48
672.65	47.47
672.977	47.64
673.305	47.77
673.633	47.89
673.96	48.1
674.288	48.26
674.615	48.41
674.943	48.5
675.27	48.58
675.597	48.66
675.924	48.73
676.252	48.86
676.579	48.8
676.906	48.77
677.233	48.6
677.56	48.54
677.887	48.45
678.214	48.44
678.541	48.41
678.868	48.45
679.195	48.37
679.521	48.44
679.848	48.62
680.175	48.71
680.501	48.87
680.828	49
681.154	49.04
681.481	49.2
681.807	49.31
682.134	49.44
682.46	49.43
682.787	49.47
683.113	49.47
683.439	49.35
683.765	49.36
684.091	49.35
684.417	49.39
684.743	49.43
685.069	49.53
685.395	49.53
685.721	49.47
686.047	49.46
686.373	49.51
686.699	49.57
687.024	49.72
687.35	49.84
687.676	49.9
688.001	49.96
688.327	50.08
688.652	50.12
688.978	50.22
689.303	50.31
689.629	50.41
689.954	50.48
690.279	50.53
690.604	50.53
690.93	50.51
691.255	50.51
691.58	50.58
691.905	50.56
692.23	50.42
692.555	50.39
692.88	50.33
693.204	50.35
693.529	50.44
693.854	50.49
694.179	50.46
694.503	50.46
694.828	50.52
695.153	50.5
695.477	50.52
695.802	50.55
696.126	50.57
696.451	50.64
696.775	50.69
697.099	50.61
697.423	50.61
697.748	50.67
698.072	50.82
698.396	50.87
698.72	50.86
699.044	50.83
699.368	50.91
699.692	50.98
700.016	51.12
700.34	51.1
700.664	51.16
700.987	51.17
701.311	51.27
701.635	51.21
701.958	51.19
