Data from glaucus_ven_HW_orange_right_10_Reflection__0__151.txt Node

Date: Sun Dec 11 16:43:11 EST 2022
User: abbyrobinson
Spectrometer: USB2G8287
Scans to average: 10
Trigger mode: 4
Integration Time (sec): 1.000000E-1
Electric dark correction enabled: true
Boxcar width: 5
XAxis mode: Wavelengths
Number of Pixels in Spectrum: 2048
>>>>>Begin Spectral Data<<<<<
177.272	73.47
177.658	74.75
178.044	47.1
178.43	17.95
178.816	29.52
179.203	37.25
179.589	419.05
179.975	183.33
180.361	121.71
180.747	87.39
181.133	44.03
181.519	47.02
181.904	74.75
182.29	34.13
182.676	26.24
183.062	41.8
183.447	30.71
183.833	43.92
184.219	31.02
184.604	29.91
184.99	70.54
185.375	-392.59
185.761	-89.39
186.146	-41.15
186.531	-17.33
186.917	-9.26
187.302	-4.6
187.687	-2.2
188.073	1.57
188.458	-0.1
188.843	-0.65
189.228	-6.93
189.613	-5.37
189.998	-2.81
190.383	-4.53
190.768	-11.99
191.153	-6.68
191.538	-7.08
191.923	-6.36
192.307	-5.56
192.692	-2.45
193.077	-1.49
193.461	-2.81
193.846	-3.95
194.231	-7.84
194.615	-6.61
195	-2.42
195.384	-0.85
195.769	2.33
196.153	-4.1
196.537	-7.74
196.922	-6.62
197.306	-11.2
197.69	-3.82
198.074	-1.81
198.458	-1.24
198.843	0.83
199.227	3.62
199.611	-4.85
199.995	-6.73
200.379	-1.19
200.763	1.96
201.146	7.5
201.53	10.74
201.914	7.79
202.298	9.11
202.681	14.33
203.065	17.46
203.449	17.26
203.832	23.51
204.216	25.03
204.599	32.74
204.983	33.79
205.366	23.74
205.75	20.97
206.133	16.89
206.516	12.94
206.9	13.63
207.283	10.69
207.666	3.51
208.049	-0.6
208.432	-0.95
208.815	-16.88
209.198	-17.51
209.581	-10.63
209.964	-9.73
210.347	-3.2
210.73	0.29
211.113	-1.96
211.496	-2.82
211.879	4.08
212.261	9.46
212.644	12.97
213.027	11.99
213.409	14.8
213.792	16.85
214.174	17.84
214.557	16.35
214.939	15.62
215.322	16.82
215.704	13.79
216.086	11.01
216.469	4.8
216.851	2.31
217.233	1.2
217.615	1.18
217.997	-0.06
218.379	2.55
218.761	2.25
219.143	-1.12
219.525	-8.1
219.907	-4.81
220.289	-1.58
220.671	-0.39
221.053	-4.02
221.435	-1.49
221.816	-1.55
222.198	-0.92
222.58	-1.92
222.961	-2.78
223.343	-1.65
223.724	-0.68
224.106	-1.3
224.487	-3.01
224.869	-1.4
225.25	1.03
225.631	1.4
226.013	0.08
226.394	-2.41
226.775	-2.64
227.156	-2.42
227.537	-1.05
227.919	0.26
228.3	-0.85
228.681	-0.81
229.062	-1.28
229.442	-2.54
229.823	-2.95
230.204	-1.83
230.585	-0.22
230.966	1.85
231.347	2.88
231.727	1.97
232.108	2.14
232.488	1.5
232.869	2.01
233.25	2.74
233.63	4.08
234.01	4.6
234.391	4.9
234.771	4.94
235.152	4.3
235.532	4.36
235.912	5.41
236.292	6.02
236.672	6.99
237.053	7.11
237.433	6.97
237.813	6.92
238.193	7.23
238.573	6.96
238.953	6.78
239.333	7.14
239.712	7.54
240.092	7.14
240.472	6.96
240.852	6.95
241.231	6.78
241.611	6.74
241.991	6.82
242.37	6.84
242.75	7.01
243.129	6.94
243.509	6.77
243.888	6.44
244.267	6.55
244.647	6.59
245.026	6.71
245.405	6.89
245.784	6.92
246.164	6.94
246.543	6.82
246.922	6.86
247.301	7.02
247.68	7.13
248.059	7.25
248.438	7.27
248.817	7.38
249.195	7.29
249.574	7.35
249.953	7.34
250.332	7.26
250.71	7.38
251.089	7.38
251.468	7.42
251.846	7.5
252.225	7.51
252.603	7.65
252.982	7.65
253.36	7.66
253.738	7.55
254.117	7.64
254.495	7.65
254.873	7.64
255.251	7.7
255.63	7.66
256.008	7.57
256.386	7.56
256.764	7.41
257.142	7.37
257.52	7.38
257.898	7.49
258.276	7.5
258.653	7.46
259.031	7.41
259.409	7.29
259.787	7.36
260.164	7.42
260.542	7.52
260.92	7.53
261.297	7.62
261.675	7.67
262.052	7.62
262.43	7.68
262.807	7.7
263.184	7.74
263.562	7.88
263.939	7.83
264.316	7.84
264.693	7.76
265.07	7.8
265.448	7.71
265.825	7.75
266.202	7.79
266.579	7.67
266.956	7.73
267.333	7.76
267.709	7.65
268.086	7.66
268.463	7.61
268.84	7.64
269.216	7.62
269.593	7.59
269.97	7.42
270.346	7.31
270.723	7.33
271.099	7.32
271.476	7.28
271.852	7.25
272.229	7.22
272.605	7.2
272.981	7.19
273.358	7.22
273.734	7.27
274.11	7.28
274.486	7.3
274.862	7.27
275.238	7.21
275.614	7.21
275.99	7.26
276.366	7.22
276.742	7.2
277.118	7.1
277.494	6.98
277.87	6.96
278.245	6.95
278.621	6.9
278.997	6.84
279.372	6.82
279.748	6.75
280.123	6.7
280.499	6.62
280.874	6.56
281.25	6.53
281.625	6.5
282	6.41
282.376	6.4
282.751	6.4
283.126	6.33
283.501	6.23
283.876	6.17
284.252	6.08
284.627	6.12
285.002	6.05
285.377	5.98
285.751	5.95
286.126	5.9
286.501	5.75
286.876	5.67
287.251	5.63
287.625	5.64
288	5.59
288.375	5.47
288.749	5.39
289.124	5.45
289.498	5.39
289.873	5.38
290.247	5.32
290.622	5.4
290.996	5.39
291.37	5.37
291.745	5.29
292.119	5.22
292.493	5.19
292.867	5.19
293.241	5.07
293.616	5.02
293.99	4.93
294.364	4.89
294.737	4.78
295.111	4.7
295.485	4.65
295.859	4.61
296.233	4.58
296.607	4.67
296.98	4.6
297.354	4.5
297.728	4.53
298.101	4.5
298.475	4.41
298.848	4.33
299.222	4.23
299.595	4.18
299.968	4.13
300.342	4.02
300.715	3.91
301.088	3.81
301.462	3.75
301.835	3.67
302.208	3.62
302.581	3.67
302.954	3.68
303.327	3.66
303.7	3.6
304.073	3.6
304.446	3.6
304.819	3.54
305.192	3.48
305.564	3.55
305.937	3.48
306.31	3.41
306.682	3.32
307.055	3.29
307.428	3.27
307.8	3.25
308.173	3.15
308.545	3.2
308.917	3.2
309.29	3.23
309.662	3.17
310.034	3.13
310.407	3.13
310.779	3.19
311.151	3.25
311.523	3.23
311.895	3.24
312.267	3.25
312.639	3.17
313.011	3.13
313.383	3.1
313.755	3.07
314.127	3.09
314.498	3.14
314.87	3.11
315.242	3.01
315.614	3.03
315.985	2.97
316.357	2.93
316.728	2.94
317.1	2.93
317.471	2.93
317.843	2.88
318.214	2.84
318.585	2.81
318.957	2.76
319.328	2.72
319.699	2.72
320.07	2.74
320.441	2.69
320.813	2.69
321.184	2.62
321.555	2.62
321.926	2.63
322.297	2.67
322.667	2.63
323.038	2.66
323.409	2.63
323.78	2.63
324.151	2.66
324.521	2.75
324.892	2.69
325.262	2.73
325.633	2.77
326.004	2.8
326.374	2.76
326.744	2.76
327.115	2.73
327.485	2.78
327.855	2.7
328.226	2.7
328.596	2.67
328.966	2.73
329.336	2.76
329.706	2.7
330.076	2.69
330.447	2.66
330.816	2.61
331.186	2.59
331.556	2.53
331.926	2.58
332.296	2.57
332.666	2.64
333.036	2.63
333.405	2.68
333.775	2.69
334.144	2.71
334.514	2.79
334.884	2.76
335.253	2.74
335.623	2.74
335.992	2.73
336.361	2.69
336.731	2.57
337.1	2.51
337.469	2.48
337.838	2.46
338.208	2.46
338.577	2.46
338.946	2.54
339.315	2.54
339.684	2.62
340.053	2.53
340.422	2.58
340.79	2.63
341.159	2.62
341.528	2.55
341.897	2.54
342.266	2.43
342.634	2.35
343.003	2.35
343.371	2.37
343.74	2.3
344.108	2.42
344.477	2.43
344.845	2.39
345.214	2.45
345.582	2.46
345.95	2.51
346.319	2.61
346.687	2.7
347.055	2.7
347.423	2.72
347.791	2.75
348.159	2.7
348.527	2.66
348.895	2.73
349.263	2.7
349.631	2.69
349.999	2.66
350.367	2.61
350.734	2.49
351.102	2.4
351.47	2.39
351.837	2.44
352.205	2.44
352.573	2.47
352.94	2.35
353.308	2.35
353.675	2.34
354.042	2.36
354.41	2.35
354.777	2.4
355.144	2.45
355.511	2.41
355.879	2.34
356.246	2.35
356.613	2.31
356.98	2.35
357.347	2.42
357.714	2.4
358.081	2.38
358.448	2.38
358.815	2.38
359.181	2.39
359.548	2.41
359.915	2.41
360.282	2.46
360.648	2.45
361.015	2.48
361.381	2.44
361.748	2.43
362.114	2.42
362.481	2.38
362.847	2.43
363.214	2.4
363.58	2.36
363.946	2.29
364.312	2.23
364.678	2.22
365.045	2.23
365.411	2.21
365.777	2.25
366.143	2.26
366.509	2.26
366.875	2.21
367.241	2.24
367.606	2.23
367.972	2.28
368.338	2.27
368.704	2.3
369.069	2.27
369.435	2.25
369.801	2.22
370.166	2.21
370.532	2.23
370.897	2.27
371.263	2.29
371.628	2.3
371.993	2.3
372.359	2.27
372.724	2.22
373.089	2.27
373.454	2.29
373.82	2.31
374.185	2.3
374.55	2.28
374.915	2.28
375.28	2.25
375.645	2.29
376.01	2.37
376.374	2.43
376.739	2.43
377.104	2.35
377.469	2.32
377.833	2.31
378.198	2.31
378.563	2.33
378.927	2.37
379.292	2.32
379.656	2.3
380.021	2.26
380.385	2.22
380.749	2.25
381.114	2.34
381.478	2.35
381.842	2.34
382.206	2.34
382.571	2.32
382.935	2.27
383.299	2.3
383.663	2.33
384.027	2.29
384.391	2.31
384.755	2.28
385.118	2.19
385.482	2.13
385.846	2.13
386.21	2.15
386.573	2.15
386.937	2.12
387.301	2.12
387.664	2.13
388.028	2.17
388.391	2.13
388.755	2.15
389.118	2.19
389.481	2.25
389.845	2.22
390.208	2.24
390.571	2.23
390.934	2.25
391.298	2.24
391.661	2.18
392.024	2.14
392.387	2.17
392.75	2.17
393.113	2.18
393.476	2.14
393.838	2.21
394.201	2.21
394.564	2.28
394.927	2.28
395.289	2.28
395.652	2.31
396.015	2.34
396.377	2.35
396.74	2.34
397.102	2.31
397.465	2.34
397.827	2.31
398.189	2.31
398.552	2.24
398.914	2.2
399.276	2.21
399.638	2.23
400	2.23
400.363	2.2
400.725	2.22
401.087	2.22
401.449	2.24
401.81	2.2
402.172	2.17
402.534	2.23
402.896	2.23
403.258	2.19
403.619	2.17
403.981	2.2
404.343	2.19
404.704	2.17
405.066	2.24
405.427	2.15
405.789	2.2
406.15	2.17
406.512	2.17
406.873	2.2
407.234	2.21
407.596	2.2
407.957	2.16
408.318	2.19
408.679	2.18
409.04	2.15
409.401	2.19
409.762	2.21
410.123	2.23
410.484	2.2
410.845	2.19
411.206	2.18
411.567	2.21
411.927	2.22
412.288	2.2
412.649	2.26
413.009	2.2
413.37	2.2
413.731	2.2
414.091	2.18
414.452	2.19
414.812	2.19
415.172	2.21
415.533	2.19
415.893	2.2
416.253	2.22
416.613	2.2
416.974	2.23
417.334	2.26
417.694	2.23
418.054	2.25
418.414	2.26
418.774	2.26
419.134	2.29
419.494	2.27
419.853	2.27
420.213	2.25
420.573	2.26
420.933	2.26
421.292	2.23
421.652	2.23
422.011	2.21
422.371	2.17
422.73	2.19
423.09	2.17
423.449	2.18
423.809	2.16
424.168	2.17
424.527	2.15
424.887	2.15
425.246	2.18
425.605	2.24
425.964	2.28
426.323	2.32
426.682	2.31
427.041	2.32
427.4	2.3
427.759	2.29
428.118	2.29
428.477	2.3
428.835	2.34
429.194	2.34
429.553	2.26
429.911	2.26
430.27	2.27
430.629	2.25
430.987	2.29
431.346	2.35
431.704	2.41
432.062	2.42
432.421	2.43
432.779	2.39
433.137	2.4
433.496	2.41
433.854	2.41
434.212	2.4
434.57	2.44
434.928	2.48
435.286	2.47
435.644	2.48
436.002	2.51
436.36	2.48
436.718	2.51
437.075	2.54
437.433	2.59
437.791	2.59
438.149	2.6
438.506	2.6
438.864	2.51
439.221	2.54
439.579	2.52
439.936	2.52
440.294	2.53
440.651	2.62
441.009	2.63
441.366	2.63
441.723	2.67
442.08	2.67
442.437	2.69
442.795	2.74
443.152	2.72
443.509	2.74
443.866	2.77
444.223	2.81
444.58	2.75
444.936	2.75
445.293	2.77
445.65	2.78
446.007	2.8
446.363	2.77
446.72	2.8
447.077	2.81
447.433	2.83
447.79	2.83
448.146	2.84
448.503	2.86
448.859	2.9
449.215	2.89
449.572	2.9
449.928	2.94
450.284	3.03
450.641	3.03
450.997	3.03
451.353	3.06
451.709	3.13
452.065	3.17
452.421	3.2
452.777	3.22
453.133	3.27
453.488	3.31
453.844	3.34
454.2	3.34
454.556	3.38
454.911	3.45
455.267	3.48
455.623	3.47
455.978	3.47
456.334	3.46
456.689	3.44
457.045	3.47
457.4	3.44
457.755	3.46
458.111	3.51
458.466	3.54
458.821	3.53
459.176	3.55
459.531	3.55
459.886	3.63
460.242	3.69
460.597	3.74
460.951	3.77
461.306	3.83
461.661	3.84
462.016	3.79
462.371	3.79
462.726	3.88
463.08	3.91
463.435	3.95
463.79	3.9
464.144	3.86
464.499	3.85
464.853	3.85
465.208	3.88
465.562	3.92
465.916	3.97
466.271	3.99
466.625	4.01
466.979	4.04
467.333	4.07
467.688	4.12
468.042	4.14
468.396	4.21
468.75	4.25
469.104	4.27
469.458	4.28
469.811	4.3
470.165	4.36
470.519	4.35
470.873	4.35
471.227	4.38
471.58	4.44
471.934	4.54
472.287	4.53
472.641	4.54
472.995	4.56
473.348	4.6
473.701	4.66
474.055	4.71
474.408	4.74
474.761	4.79
475.115	4.76
475.468	4.79
475.821	4.76
476.174	4.85
476.527	4.88
476.88	4.91
477.233	4.89
477.586	4.88
477.939	4.88
478.292	4.93
478.645	4.93
478.998	5.02
479.35	5.07
479.703	5.14
480.056	5.13
480.408	5.12
480.761	5.18
481.113	5.21
481.466	5.3
481.818	5.33
482.171	5.32
482.523	5.37
482.875	5.37
483.228	5.4
483.58	5.45
483.932	5.48
484.284	5.48
484.636	5.52
484.988	5.61
485.34	5.6
485.692	5.61
486.044	5.67
486.396	5.71
486.748	5.73
487.1	5.75
487.451	5.78
487.803	5.81
488.155	5.91
488.506	5.91
488.858	5.92
489.209	5.98
489.561	6.01
489.912	6.03
490.264	6.06
490.615	6.1
490.966	6.12
491.318	6.1
491.669	6.14
492.02	6.15
492.371	6.21
492.722	6.22
493.073	6.21
493.424	6.26
493.775	6.28
494.126	6.31
494.477	6.38
494.828	6.42
495.179	6.49
495.53	6.54
495.88	6.56
496.231	6.63
496.582	6.69
496.932	6.78
497.283	6.84
497.633	6.93
497.984	7
498.334	7.02
498.684	7.05
499.035	7.11
499.385	7.15
499.735	7.21
500.086	7.27
500.436	7.33
500.786	7.37
501.136	7.41
501.486	7.46
501.836	7.51
502.186	7.58
502.536	7.65
502.886	7.69
503.235	7.76
503.585	7.85
503.935	7.83
504.285	7.93
504.634	8.02
504.984	8.07
505.333	8.11
505.683	8.16
506.032	8.19
506.382	8.26
506.731	8.3
507.08	8.36
507.43	8.41
507.779	8.52
508.128	8.54
508.477	8.53
508.826	8.6
509.176	8.65
509.525	8.73
509.874	8.82
510.222	8.94
510.571	9.06
510.92	9.12
511.269	9.22
511.618	9.28
511.967	9.38
512.315	9.44
512.664	9.52
513.012	9.57
513.361	9.64
513.71	9.71
514.058	9.73
514.406	9.77
514.755	9.82
515.103	9.88
515.451	9.93
515.8	9.99
516.148	10.07
516.496	10.13
516.844	10.26
517.192	10.29
517.54	10.4
517.888	10.44
518.236	10.53
518.584	10.65
518.932	10.66
519.28	10.79
519.628	10.88
519.975	10.95
520.323	11.06
520.671	11.13
521.018	11.24
521.366	11.28
521.713	11.34
522.061	11.43
522.408	11.49
522.756	11.62
523.103	11.69
523.45	11.79
523.798	11.92
524.145	11.99
524.492	12.05
524.839	12.13
525.186	12.19
525.533	12.3
525.88	12.4
526.227	12.47
526.574	12.53
526.921	12.56
527.268	12.65
527.615	12.71
527.961	12.82
528.308	12.93
528.655	13.09
529.001	13.2
529.348	13.29
529.694	13.34
530.041	13.46
530.387	13.56
530.734	13.68
531.08	13.76
531.426	13.85
531.773	13.94
532.119	14
532.465	14.08
532.811	14.18
533.157	14.29
533.503	14.43
533.849	14.5
534.195	14.58
534.541	14.68
534.887	14.78
535.233	14.92
535.579	15.06
535.924	15.16
536.27	15.22
536.616	15.37
536.961	15.44
537.307	15.51
537.652	15.66
537.998	15.76
538.343	15.88
538.689	15.94
539.034	16
539.379	16.02
539.725	16.1
540.07	16.22
540.415	16.27
540.76	16.38
541.105	16.49
541.45	16.6
541.795	16.7
542.14	16.78
542.485	16.89
542.83	16.97
543.175	17.1
543.519	17.23
543.864	17.35
544.209	17.46
544.554	17.54
544.898	17.66
545.243	17.73
545.587	17.84
545.932	17.91
546.276	18.06
546.621	18.19
546.965	18.32
547.309	18.43
547.653	18.49
547.998	18.57
548.342	18.66
548.686	18.73
549.03	18.83
549.374	18.94
549.718	19.01
550.062	19.1
550.406	19.22
550.75	19.33
551.094	19.4
551.437	19.5
551.781	19.61
552.125	19.76
552.468	19.87
552.812	19.97
553.156	20.08
553.499	20.25
553.843	20.35
554.186	20.45
554.529	20.54
554.873	20.63
555.216	20.77
555.559	20.9
555.902	21.03
556.246	21.12
556.589	21.23
556.932	21.3
557.275	21.36
557.618	21.43
557.961	21.55
558.304	21.66
558.646	21.81
558.989	21.89
559.332	21.96
559.675	22.04
560.017	22.09
560.36	22.17
560.703	22.29
561.045	22.39
561.388	22.56
561.73	22.66
562.073	22.74
562.415	22.82
562.757	22.91
563.1	22.98
563.442	23.05
563.784	23.16
564.126	23.28
564.468	23.41
564.81	23.54
565.152	23.66
565.494	23.71
565.836	23.82
566.178	23.99
566.52	24.08
566.862	24.23
567.204	24.37
567.545	24.55
567.887	24.65
568.229	24.77
568.57	24.86
568.912	24.94
569.253	25.08
569.595	25.13
569.936	25.19
570.277	25.32
570.619	25.4
570.96	25.52
571.301	25.65
571.642	25.8
571.984	25.87
572.325	26
572.666	26.13
573.007	26.2
573.348	26.36
573.689	26.48
574.03	26.58
574.37	26.66
574.711	26.79
575.052	26.89
575.393	26.95
575.733	27.04
576.074	27.14
576.414	27.21
576.755	27.35
577.095	27.39
577.436	27.46
577.776	27.55
578.117	27.67
578.457	27.73
578.797	27.8
579.137	27.9
579.478	28.02
579.818	28.1
580.158	28.2
580.498	28.28
580.838	28.41
581.178	28.54
581.518	28.65
581.858	28.75
582.197	28.88
582.537	28.97
582.877	29.08
583.217	29.18
583.556	29.28
583.896	29.39
584.235	29.51
584.575	29.62
584.914	29.73
585.254	29.83
585.593	29.94
585.933	30.03
586.272	30.16
586.611	30.24
586.95	30.32
587.289	30.41
587.629	30.47
587.968	30.57
588.307	30.67
588.646	30.75
588.985	30.87
589.323	30.94
589.662	31.04
590.001	31.15
590.34	31.25
590.679	31.35
591.017	31.46
591.356	31.59
591.695	31.68
592.033	31.8
592.372	31.91
592.71	31.98
593.048	32.11
593.387	32.2
593.725	32.3
594.063	32.42
594.402	32.59
594.74	32.72
595.078	32.84
595.416	33
595.754	33.07
596.092	33.17
596.43	33.32
596.768	33.46
597.106	33.59
597.444	33.66
597.781	33.76
598.119	33.82
598.457	33.91
598.795	34.01
599.132	34.12
599.47	34.24
599.807	34.39
600.145	34.5
600.482	34.57
600.82	34.7
601.157	34.83
601.494	34.95
601.831	35.1
602.169	35.25
602.506	35.41
602.843	35.5
603.18	35.62
603.517	35.72
603.854	35.8
604.191	35.9
604.528	35.97
604.865	36.06
605.202	36.16
605.538	36.25
605.875	36.36
606.212	36.4
606.548	36.48
606.885	36.56
607.222	36.63
607.558	36.74
607.895	36.89
608.231	37.05
608.567	37.15
608.904	37.26
609.24	37.35
609.576	37.4
609.912	37.52
610.248	37.6
610.585	37.74
610.921	37.85
611.257	37.95
611.593	38.03
611.929	38.06
612.264	38.15
612.6	38.26
612.936	38.36
613.272	38.48
613.608	38.6
613.943	38.73
614.279	38.83
614.614	38.96
614.95	39.08
615.285	39.15
615.621	39.29
615.956	39.45
616.292	39.6
616.627	39.66
616.962	39.79
617.297	39.9
617.632	40.01
617.968	40.14
618.303	40.23
618.638	40.29
618.973	40.41
619.308	40.59
619.643	40.66
619.977	40.79
620.312	40.94
620.647	41.05
620.982	41.15
621.316	41.24
621.651	41.37
621.986	41.47
622.32	41.63
622.655	41.72
622.989	41.74
623.324	41.87
623.658	41.87
623.992	41.95
624.326	42.03
624.661	42.14
624.995	42.24
625.329	42.26
625.663	42.45
625.997	42.54
626.331	42.72
626.665	42.85
626.999	42.89
627.333	43.06
627.667	43.19
628.001	43.28
628.334	43.35
628.668	43.44
629.002	43.56
629.335	43.6
629.669	43.74
630.002	43.82
630.336	43.86
630.669	44.04
631.003	44.13
631.336	44.24
631.669	44.36
632.003	44.48
632.336	44.57
632.669	44.66
633.002	44.75
633.335	44.83
633.668	44.87
634.001	45
634.334	45.12
634.667	45.16
635	45.28
635.333	45.3
635.665	45.4
635.998	45.48
636.331	45.6
636.663	45.71
636.996	45.75
637.328	45.92
637.661	46.01
637.993	46.06
638.326	46.19
638.658	46.25
638.99	46.45
639.323	46.57
639.655	46.74
639.987	46.81
640.319	46.95
640.651	47.09
640.983	47.23
641.315	47.38
641.647	47.55
641.979	47.69
642.311	47.78
642.643	47.85
642.975	48.02
643.306	48.12
643.638	48.27
643.97	48.33
644.301	48.45
644.633	48.55
644.964	48.66
645.296	48.74
645.627	48.82
645.959	48.96
646.29	49.08
646.621	49.17
646.952	49.31
647.284	49.43
647.615	49.56
647.946	49.65
648.277	49.73
648.608	49.82
648.939	49.95
649.27	50.12
649.601	50.25
649.931	50.4
650.262	50.48
650.593	50.66
650.924	50.73
651.254	50.86
651.585	51.01
651.915	51.05
652.246	51.16
652.576	51.24
652.907	51.26
653.237	51.41
653.568	51.53
653.898	51.62
654.228	51.69
654.558	51.79
654.888	51.93
655.219	52.14
655.549	52.53
655.879	52.92
656.209	53.31
656.539	53.73
656.868	54
657.198	54.27
657.528	54.45
657.858	54.65
658.188	54.74
658.517	54.84
658.847	54.96
659.176	55.02
659.506	55.06
659.835	55.1
660.165	55.06
660.494	55
660.824	54.91
661.153	54.85
661.482	54.75
661.811	54.72
662.14	54.65
662.47	54.5
662.799	54.39
663.128	54.3
663.457	54.18
663.786	54.2
664.114	54.33
664.443	54.5
664.772	54.67
665.101	54.85
665.43	55.01
665.758	55.17
666.087	55.42
666.415	55.55
666.744	55.73
667.072	55.92
667.401	56.04
667.729	56.16
668.058	56.17
668.386	56.36
668.714	56.44
669.042	56.45
669.371	56.51
669.699	56.7
670.027	56.94
670.355	57.02
670.683	57.17
671.011	57.23
671.339	57.23
671.666	57.47
671.994	57.5
672.322	57.67
672.65	57.79
672.977	57.94
673.305	57.87
673.633	57.92
673.96	58.1
674.288	58.19
674.615	58.36
674.943	58.62
675.27	58.64
675.597	58.78
675.924	58.75
676.252	58.85
676.579	58.89
676.906	59.03
677.233	59.17
677.56	59.12
677.887	59.27
678.214	59.41
678.541	59.43
678.868	59.51
679.195	59.44
679.521	59.68
679.848	59.76
680.175	59.9
680.501	59.96
680.828	59.99
681.154	60.16
681.481	60.22
681.807	60.29
682.134	60.46
682.46	60.6
682.787	60.85
683.113	60.86
683.439	60.91
683.765	60.97
684.091	61.07
684.417	61.2
684.743	61.22
685.069	61.26
685.395	61.38
685.721	61.34
686.047	61.33
686.373	61.32
686.699	61.39
687.024	61.63
687.35	61.76
687.676	61.83
688.001	61.97
688.327	62.11
688.652	62.21
688.978	62.29
689.303	62.45
689.629	62.52
689.954	62.66
690.279	62.76
690.604	62.84
690.93	62.86
691.255	62.99
691.58	62.98
691.905	63.04
692.23	63.14
692.555	63.26
692.88	63.38
693.204	63.56
693.529	63.64
693.854	63.75
694.179	63.79
694.503	63.89
694.828	63.99
695.153	64.14
695.477	64.24
695.802	64.35
696.126	64.29
696.451	64.31
696.775	64.4
697.099	64.42
697.423	64.43
697.748	64.46
698.072	64.57
698.396	64.56
698.72	64.66
699.044	64.78
699.368	64.83
699.692	64.87
700.016	64.88
700.34	64.97
700.664	65.09
700.987	65.21
701.311	65.28
701.635	65.28
701.958	65.38
702.282	65.34
702.606	65.42
702.929	65.43
703.252	65.53
703.576	65.73
703.899	65.7
704.223	65.76
704.546	65.72
