Data from glaucus_ven_HW_orange_left_10_Reflection__0__150.txt Node

Date: Sun Dec 11 16:42:54 EST 2022
User: abbyrobinson
Spectrometer: USB2G8287
Scans to average: 10
Trigger mode: 4
Integration Time (sec): 1.000000E-1
Electric dark correction enabled: true
Boxcar width: 5
XAxis mode: Wavelengths
Number of Pixels in Spectrum: 2048
>>>>>Begin Spectral Data<<<<<
177.272	-8.16
177.658	18.94
178.044	-17.39
178.43	-32.05
178.816	-54.29
179.203	-13.24
179.589	607.14
179.975	243.18
180.361	117.44
180.747	44.59
181.133	0.94
181.519	-24.11
181.904	18.94
182.29	-34.52
182.676	-30.85
183.062	5.56
183.447	43.26
183.833	42.94
184.219	24.26
184.604	31.41
184.99	63.95
185.375	-94.44
185.761	-17.05
186.146	2.34
186.531	16.5
186.917	18.4
187.302	25.69
187.687	32.02
188.073	30.47
188.458	26.29
188.843	24.72
189.228	16.95
189.613	9.31
189.998	9.1
190.383	12.66
190.768	8.07
191.153	12.31
191.538	13.12
191.923	12.92
192.307	10.82
192.692	13.42
193.077	14.2
193.461	16.21
193.846	13.2
194.231	14.86
194.615	15.08
195	15.97
195.384	13.94
195.769	18.43
196.153	14.95
196.537	13.32
196.922	10.68
197.306	3.16
197.69	6.19
198.074	11.21
198.458	13.6
198.843	9.37
199.227	4.89
199.611	-2.16
199.995	-5.39
200.379	-2.12
200.763	0.91
201.146	4.08
201.53	8.94
201.914	11.02
202.298	12.57
202.681	10.98
203.065	13.59
203.449	18.6
203.832	19.11
204.216	12.55
204.599	21.67
204.983	19.64
205.366	14.65
205.75	14.53
206.133	9.32
206.516	2.77
206.9	4.41
207.283	2.24
207.666	-3.48
208.049	-0.82
208.432	4
208.815	-8.93
209.198	-7.2
209.581	0.1
209.964	1.39
210.347	-0.44
210.73	1.67
211.113	3.2
211.496	3.02
211.879	8.35
212.261	10.4
212.644	11.98
213.027	10.64
213.409	12.27
213.792	9.9
214.174	5.94
214.557	7.77
214.939	8.97
215.322	5.6
215.704	7.5
216.086	6.85
216.469	2.15
216.851	1.92
217.233	0.45
217.615	1.15
217.997	1.35
218.379	4.6
218.761	5.96
219.143	3.98
219.525	0.27
219.907	-0.97
220.289	-3.47
220.671	-3.73
221.053	-7.83
221.435	-2.47
221.816	-1.27
222.198	1.39
222.58	4.1
222.961	3.76
223.343	4.62
223.724	7.61
224.106	8.59
224.487	11.05
224.869	12.92
225.25	15.99
225.631	12.06
226.013	9.77
226.394	5.52
226.775	4.36
227.156	3.74
227.537	3.81
227.919	3.03
228.3	1.05
228.681	0.04
229.062	0.46
229.442	-0.04
229.823	1.87
230.204	2.88
230.585	4.75
230.966	5.94
231.347	6.92
231.727	6.79
232.108	7
232.488	7.61
232.869	8.35
233.25	7.85
233.63	8.43
234.01	7.95
234.391	7.09
234.771	6.79
235.152	5.77
235.532	5.96
235.912	6.24
236.292	5.95
236.672	5.85
237.053	5.89
237.433	5.76
237.813	5.49
238.193	5.49
238.573	5.48
238.953	5.24
239.333	5.72
239.712	5.67
240.092	5.61
240.472	5.63
240.852	5.72
241.231	5.5
241.611	5.52
241.991	5.61
242.37	5.82
242.75	6.04
243.129	6.08
243.509	5.91
243.888	5.88
244.267	6.08
244.647	6.27
245.026	6.33
245.405	6.49
245.784	6.46
246.164	6.49
246.543	6.36
246.922	6.38
247.301	6.46
247.68	6.58
248.059	6.64
248.438	6.56
248.817	6.59
249.195	6.65
249.574	6.6
249.953	6.62
250.332	6.66
250.71	6.78
251.089	6.9
251.468	6.88
251.846	6.85
252.225	6.86
252.603	6.94
252.982	6.93
253.36	6.89
253.738	6.85
254.117	6.92
254.495	6.83
254.873	6.88
255.251	6.89
255.63	6.98
256.008	6.99
256.386	7.02
256.764	6.95
257.142	7.02
257.52	7
257.898	7.08
258.276	7.13
258.653	7.2
259.031	7.14
259.409	7.08
259.787	7.13
260.164	7.17
260.542	7.23
260.92	7.3
261.297	7.31
261.675	7.44
262.052	7.52
262.43	7.51
262.807	7.5
263.184	7.58
263.562	7.65
263.939	7.64
264.316	7.68
264.693	7.6
265.07	7.6
265.448	7.55
265.825	7.56
266.202	7.54
266.579	7.57
266.956	7.64
267.333	7.66
267.709	7.63
268.086	7.63
268.463	7.59
268.84	7.69
269.216	7.7
269.593	7.72
269.97	7.7
270.346	7.67
270.723	7.65
271.099	7.66
271.476	7.65
271.852	7.64
272.229	7.61
272.605	7.64
272.981	7.61
273.358	7.69
273.734	7.78
274.11	7.72
274.486	7.75
274.862	7.77
275.238	7.7
275.614	7.71
275.99	7.71
276.366	7.76
276.742	7.68
277.118	7.65
277.494	7.59
277.87	7.57
278.245	7.59
278.621	7.57
278.997	7.55
279.372	7.57
279.748	7.52
280.123	7.48
280.499	7.39
280.874	7.41
281.25	7.41
281.625	7.32
282	7.19
282.376	7.19
282.751	7.17
283.126	7.15
283.501	7.1
283.876	7.04
284.252	6.99
284.627	7.02
285.002	6.95
285.377	6.88
285.751	6.92
286.126	6.91
286.501	6.85
286.876	6.78
287.251	6.69
287.625	6.65
288	6.64
288.375	6.61
288.749	6.47
289.124	6.5
289.498	6.38
289.873	6.28
290.247	6.22
290.622	6.17
290.996	6.1
291.37	6.1
291.745	6.07
292.119	6.03
292.493	5.94
292.867	5.98
293.241	5.86
293.616	5.84
293.99	5.79
294.364	5.75
294.737	5.63
295.111	5.61
295.485	5.52
295.859	5.46
296.233	5.36
296.607	5.35
296.98	5.25
297.354	5.2
297.728	5.25
298.101	5.16
298.475	5.05
298.848	5
299.222	4.92
299.595	4.84
299.968	4.76
300.342	4.76
300.715	4.78
301.088	4.72
301.462	4.71
301.835	4.62
302.208	4.65
302.581	4.67
302.954	4.71
303.327	4.7
303.7	4.68
304.073	4.67
304.446	4.64
304.819	4.48
305.192	4.41
305.564	4.39
305.937	4.27
306.31	4.19
306.682	4.15
307.055	4.08
307.428	3.99
307.8	3.92
308.173	3.85
308.545	3.8
308.917	3.82
309.29	3.86
309.662	3.79
310.034	3.82
310.407	3.81
310.779	3.71
311.151	3.73
311.523	3.73
311.895	3.74
312.267	3.75
312.639	3.68
313.011	3.65
313.383	3.63
313.755	3.65
314.127	3.62
314.498	3.59
314.87	3.66
315.242	3.62
315.614	3.57
315.985	3.53
316.357	3.45
316.728	3.46
317.1	3.46
317.471	3.38
317.843	3.33
318.214	3.31
318.585	3.28
318.957	3.22
319.328	3.17
319.699	3.2
320.07	3.21
320.441	3.18
320.813	3.2
321.184	3.14
321.555	3.17
321.926	3.15
322.297	3.13
322.667	3.1
323.038	3.16
323.409	3.16
323.78	3.09
324.151	3.08
324.521	3.1
324.892	3
325.262	3.03
325.633	3.07
326.004	3.13
326.374	3.19
326.744	3.23
327.115	3.23
327.485	3.28
327.855	3.36
328.226	3.32
328.596	3.35
328.966	3.38
329.336	3.36
329.706	3.3
330.076	3.26
330.447	3.13
330.816	3.1
331.186	3.07
331.556	2.96
331.926	2.96
332.296	2.98
332.666	3.03
333.036	3.07
333.405	3.12
333.775	3.09
334.144	3.06
334.514	3.13
334.884	3.06
335.253	3.01
335.623	3.02
335.992	2.95
336.361	2.96
336.731	2.87
337.1	2.83
337.469	2.81
337.838	2.82
338.208	2.85
338.577	2.85
338.946	2.89
339.315	2.85
339.684	2.84
340.053	2.82
340.422	2.85
340.79	2.88
341.159	2.84
341.528	2.79
341.897	2.8
342.266	2.74
342.634	2.67
343.003	2.73
343.371	2.82
343.74	2.81
344.108	2.9
344.477	2.87
344.845	2.82
345.214	2.84
345.582	2.83
345.95	2.81
346.319	2.85
346.687	2.93
347.055	2.88
347.423	2.87
347.791	2.9
348.159	2.84
348.527	2.82
348.895	2.86
349.263	2.82
349.631	2.82
349.999	2.76
350.367	2.75
350.734	2.65
351.102	2.62
351.47	2.6
351.837	2.56
352.205	2.56
352.573	2.56
352.94	2.49
353.308	2.48
353.675	2.52
354.042	2.61
354.41	2.54
354.777	2.6
355.144	2.58
355.511	2.58
355.879	2.62
356.246	2.65
356.613	2.66
356.98	2.69
357.347	2.79
357.714	2.76
358.081	2.69
358.448	2.74
358.815	2.67
359.181	2.69
359.548	2.68
359.915	2.64
360.282	2.66
360.648	2.66
361.015	2.72
361.381	2.68
361.748	2.65
362.114	2.66
362.481	2.65
362.847	2.7
363.214	2.71
363.58	2.72
363.946	2.73
364.312	2.66
364.678	2.63
365.045	2.62
365.411	2.62
365.777	2.62
366.143	2.67
366.509	2.66
366.875	2.63
367.241	2.63
367.606	2.6
367.972	2.72
368.338	2.72
368.704	2.66
369.069	2.64
369.435	2.61
369.801	2.63
370.166	2.58
370.532	2.58
370.897	2.6
371.263	2.59
371.628	2.57
371.993	2.48
372.359	2.45
372.724	2.49
373.089	2.45
373.454	2.46
373.82	2.4
374.185	2.39
374.55	2.44
374.915	2.43
375.28	2.42
375.645	2.43
376.01	2.47
376.374	2.49
376.739	2.47
377.104	2.47
377.469	2.48
377.833	2.49
378.198	2.47
378.563	2.39
378.927	2.41
379.292	2.34
379.656	2.32
380.021	2.33
380.385	2.33
380.749	2.35
381.114	2.44
381.478	2.43
381.842	2.45
382.206	2.52
382.571	2.49
382.935	2.47
383.299	2.51
383.663	2.56
384.027	2.49
384.391	2.45
384.755	2.44
385.118	2.32
385.482	2.3
385.846	2.28
386.21	2.22
386.573	2.3
386.937	2.28
387.301	2.34
387.664	2.37
388.028	2.41
388.391	2.45
388.755	2.42
389.118	2.48
389.481	2.5
389.845	2.49
390.208	2.52
390.571	2.49
390.934	2.5
391.298	2.47
391.661	2.39
392.024	2.34
392.387	2.29
392.75	2.33
393.113	2.3
393.476	2.28
393.838	2.32
394.201	2.36
394.564	2.39
394.927	2.34
395.289	2.37
395.652	2.41
396.015	2.43
396.377	2.48
396.74	2.48
397.102	2.48
397.465	2.49
397.827	2.47
398.189	2.43
398.552	2.42
398.914	2.47
399.276	2.45
399.638	2.43
400	2.46
400.363	2.41
400.725	2.46
401.087	2.45
401.449	2.47
401.81	2.5
402.172	2.51
402.534	2.48
402.896	2.48
403.258	2.45
403.619	2.46
403.981	2.42
404.343	2.47
404.704	2.41
405.066	2.45
405.427	2.45
405.789	2.44
406.15	2.43
406.512	2.46
406.873	2.45
407.234	2.45
407.596	2.44
407.957	2.38
408.318	2.32
408.679	2.29
409.04	2.29
409.401	2.24
409.762	2.24
410.123	2.26
410.484	2.22
410.845	2.22
411.206	2.24
411.567	2.3
411.927	2.4
412.288	2.4
412.649	2.49
413.009	2.5
413.37	2.52
413.731	2.52
414.091	2.51
414.452	2.49
414.812	2.43
415.172	2.41
415.533	2.38
415.893	2.34
416.253	2.35
416.613	2.31
416.974	2.28
417.334	2.27
417.694	2.28
418.054	2.29
418.414	2.34
418.774	2.43
419.134	2.48
419.494	2.48
419.853	2.52
420.213	2.54
420.573	2.55
420.933	2.53
421.292	2.51
421.652	2.49
422.011	2.45
422.371	2.41
422.73	2.4
423.09	2.37
423.449	2.37
423.809	2.34
424.168	2.35
424.527	2.35
424.887	2.4
425.246	2.45
425.605	2.53
425.964	2.57
426.323	2.59
426.682	2.58
427.041	2.6
427.4	2.61
427.759	2.62
428.118	2.61
428.477	2.57
428.835	2.54
429.194	2.54
429.553	2.46
429.911	2.49
430.27	2.51
430.629	2.48
430.987	2.52
431.346	2.53
431.704	2.56
432.062	2.56
432.421	2.61
432.779	2.62
433.137	2.62
433.496	2.61
433.854	2.59
434.212	2.62
434.57	2.65
434.928	2.66
435.286	2.71
435.644	2.73
436.002	2.77
436.36	2.75
436.718	2.76
437.075	2.77
437.433	2.81
437.791	2.82
438.149	2.81
438.506	2.83
438.864	2.81
439.221	2.81
439.579	2.78
439.936	2.77
440.294	2.81
440.651	2.87
441.009	2.91
441.366	2.95
441.723	2.96
442.08	2.95
442.437	2.97
442.795	2.99
443.152	2.99
443.509	2.98
443.866	3.02
444.223	3.04
444.58	3.04
444.936	3.02
445.293	3
445.65	3.01
446.007	3.07
446.363	3.05
446.72	3.06
447.077	3.07
447.433	3.1
447.79	3.09
448.146	3.14
448.503	3.17
448.859	3.19
449.215	3.2
449.572	3.25
449.928	3.24
450.284	3.3
450.641	3.33
450.997	3.34
451.353	3.37
451.709	3.4
452.065	3.35
452.421	3.38
452.777	3.4
453.133	3.43
453.488	3.43
453.844	3.46
454.2	3.5
454.556	3.53
454.911	3.57
455.267	3.59
455.623	3.61
455.978	3.64
456.334	3.64
456.689	3.65
457.045	3.73
457.4	3.71
457.755	3.73
458.111	3.74
458.466	3.76
458.821	3.78
459.176	3.81
459.531	3.81
459.886	3.86
460.242	3.9
460.597	3.91
460.951	3.91
461.306	3.96
461.661	3.97
462.016	3.98
462.371	4.01
462.726	4.05
463.08	4.06
463.435	4.1
463.79	4.09
464.144	4.1
464.499	4.13
464.853	4.13
465.208	4.16
465.562	4.18
465.916	4.22
466.271	4.21
466.625	4.22
466.979	4.26
467.333	4.3
467.688	4.34
468.042	4.33
468.396	4.37
468.75	4.41
469.104	4.46
469.458	4.47
469.811	4.48
470.165	4.58
470.519	4.58
470.873	4.59
471.227	4.62
471.58	4.64
471.934	4.69
472.287	4.69
472.641	4.68
472.995	4.66
473.348	4.74
473.701	4.8
474.055	4.81
474.408	4.83
474.761	4.89
475.115	4.87
475.468	4.94
475.821	4.99
476.174	5.05
476.527	5.08
476.88	5.14
477.233	5.14
477.586	5.15
477.939	5.19
478.292	5.25
478.645	5.22
478.998	5.26
479.35	5.28
479.703	5.28
480.056	5.27
480.408	5.32
480.761	5.34
481.113	5.35
481.466	5.36
481.818	5.34
482.171	5.37
482.523	5.43
482.875	5.49
483.228	5.54
483.58	5.58
483.932	5.63
484.284	5.61
484.636	5.64
484.988	5.68
485.34	5.71
485.692	5.73
486.044	5.77
486.396	5.77
486.748	5.78
487.1	5.8
487.451	5.85
487.803	5.86
488.155	5.95
488.506	5.98
488.858	6.03
489.209	6.06
489.561	6.1
489.912	6.13
490.264	6.19
490.615	6.21
490.966	6.24
491.318	6.24
491.669	6.28
492.02	6.3
492.371	6.38
492.722	6.38
493.073	6.42
493.424	6.47
493.775	6.51
494.126	6.53
494.477	6.58
494.828	6.63
495.179	6.69
495.53	6.74
495.88	6.75
496.231	6.75
496.582	6.79
496.932	6.83
497.283	6.88
497.633	6.94
497.984	7.02
498.334	7.11
498.684	7.13
499.035	7.18
499.385	7.24
499.735	7.3
500.086	7.38
500.436	7.45
500.786	7.53
501.136	7.55
501.486	7.56
501.836	7.59
502.186	7.61
502.536	7.67
502.886	7.75
503.235	7.81
503.585	7.88
503.935	7.91
504.285	7.99
504.634	8.07
504.984	8.14
505.333	8.19
505.683	8.22
506.032	8.27
506.382	8.34
506.731	8.36
507.08	8.4
507.43	8.44
507.779	8.5
508.128	8.56
508.477	8.56
508.826	8.62
509.176	8.74
509.525	8.82
509.874	8.9
510.222	8.99
510.571	9.08
510.92	9.16
511.269	9.26
511.618	9.34
511.967	9.4
512.315	9.45
512.664	9.51
513.012	9.49
513.361	9.54
513.71	9.66
514.058	9.71
514.406	9.78
514.755	9.85
515.103	9.9
515.451	9.98
515.8	10.02
516.148	10.08
516.496	10.18
516.844	10.32
517.192	10.43
517.54	10.46
517.888	10.47
518.236	10.55
518.584	10.64
518.932	10.74
519.28	10.83
519.628	10.96
519.975	11.1
520.323	11.2
520.671	11.28
521.018	11.33
521.366	11.4
521.713	11.5
522.061	11.57
522.408	11.62
522.756	11.73
523.103	11.8
523.45	11.84
523.798	11.91
524.145	11.99
524.492	12.08
524.839	12.17
525.186	12.29
525.533	12.38
525.88	12.48
526.227	12.61
526.574	12.62
526.921	12.67
527.268	12.79
527.615	12.87
527.961	12.92
528.308	13.03
528.655	13.15
529.001	13.22
529.348	13.31
529.694	13.39
530.041	13.43
530.387	13.52
530.734	13.63
531.08	13.73
531.426	13.84
531.773	13.94
532.119	14.01
532.465	14.11
532.811	14.19
533.157	14.3
533.503	14.41
533.849	14.55
534.195	14.66
534.541	14.73
534.887	14.84
535.233	14.94
535.579	15.05
535.924	15.15
536.27	15.22
536.616	15.36
536.961	15.42
537.307	15.49
537.652	15.58
537.998	15.61
538.343	15.76
538.689	15.8
539.034	15.89
539.379	15.96
539.725	16.05
540.07	16.18
540.415	16.28
540.76	16.4
541.105	16.49
541.45	16.55
541.795	16.7
542.14	16.78
542.485	16.93
542.83	17.02
543.175	17.13
543.519	17.21
543.864	17.34
544.209	17.37
544.554	17.46
544.898	17.55
545.243	17.65
545.587	17.75
545.932	17.78
546.276	17.86
546.621	17.95
546.965	18.03
547.309	18.14
547.653	18.16
547.998	18.27
548.342	18.36
548.686	18.46
549.03	18.62
549.374	18.72
549.718	18.87
550.062	18.94
550.406	19.03
550.75	19.12
551.094	19.21
551.437	19.3
551.781	19.43
552.125	19.57
552.468	19.68
552.812	19.75
553.156	19.87
553.499	19.97
553.843	20.09
554.186	20.24
554.529	20.39
554.873	20.47
555.216	20.58
555.559	20.67
555.902	20.79
556.246	20.88
556.589	20.95
556.932	21.01
557.275	21.12
557.618	21.2
557.961	21.27
558.304	21.33
558.646	21.43
558.989	21.55
559.332	21.63
559.675	21.7
560.017	21.8
560.36	21.95
560.703	22.08
561.045	22.19
561.388	22.33
561.73	22.44
562.073	22.57
562.415	22.68
562.757	22.79
563.1	22.9
563.442	22.98
563.784	23.04
564.126	23.11
564.468	23.18
564.81	23.24
565.152	23.33
565.494	23.4
565.836	23.49
566.178	23.6
566.52	23.69
566.862	23.79
567.204	23.9
567.545	24.06
567.887	24.2
568.229	24.31
568.57	24.43
568.912	24.52
569.253	24.6
569.595	24.66
569.936	24.77
570.277	24.84
570.619	24.96
570.96	25.09
571.301	25.18
571.642	25.26
571.984	25.38
572.325	25.46
572.666	25.58
573.007	25.68
573.348	25.82
573.689	25.92
574.03	26.05
574.37	26.13
574.711	26.21
575.052	26.3
575.393	26.38
575.733	26.45
576.074	26.54
576.414	26.6
576.755	26.71
577.095	26.8
577.436	26.85
577.776	26.92
578.117	27
578.457	27.09
578.797	27.19
579.137	27.28
579.478	27.4
579.818	27.5
580.158	27.63
580.498	27.71
580.838	27.81
581.178	27.92
581.518	28.04
581.858	28.14
582.197	28.24
582.537	28.3
582.877	28.42
583.217	28.52
583.556	28.63
583.896	28.71
584.235	28.84
584.575	28.91
584.914	29.01
585.254	29.08
585.593	29.16
585.933	29.27
586.272	29.41
586.611	29.5
586.95	29.6
587.289	29.66
587.629	29.75
587.968	29.83
588.307	29.95
588.646	30.07
588.985	30.2
589.323	30.33
589.662	30.48
590.001	30.56
590.34	30.64
590.679	30.71
591.017	30.87
591.356	30.98
591.695	31.06
592.033	31.15
592.372	31.25
592.71	31.35
593.048	31.45
593.387	31.49
593.725	31.6
594.063	31.76
594.402	31.91
594.74	32
595.078	32.06
595.416	32.19
595.754	32.31
596.092	32.38
596.43	32.49
596.768	32.6
597.106	32.72
597.444	32.78
597.781	32.89
598.119	32.96
598.457	33.05
598.795	33.19
599.132	33.28
599.47	33.41
599.807	33.54
600.145	33.65
600.482	33.8
600.82	33.88
601.157	33.98
601.494	34.05
601.831	34.18
602.169	34.29
602.506	34.38
602.843	34.51
603.18	34.6
603.517	34.72
603.854	34.8
604.191	34.88
604.528	35.01
604.865	35.12
605.202	35.26
605.538	35.32
605.875	35.44
606.212	35.56
606.548	35.62
606.885	35.73
607.222	35.85
607.558	35.95
607.895	36.04
608.231	36.1
608.567	36.2
608.904	36.31
609.24	36.44
609.576	36.52
609.912	36.64
610.248	36.78
610.585	36.87
610.921	36.94
611.257	37.03
611.593	37.16
611.929	37.32
612.264	37.4
612.6	37.48
612.936	37.58
613.272	37.68
613.608	37.79
613.943	37.87
614.279	37.91
614.614	38.07
614.95	38.19
615.285	38.24
615.621	38.34
615.956	38.47
616.292	38.54
616.627	38.6
616.962	38.75
617.297	38.85
617.632	38.98
617.968	39.16
618.303	39.25
618.638	39.37
618.973	39.5
619.308	39.62
619.643	39.76
619.977	39.91
620.312	40.07
620.647	40.12
620.982	40.19
621.316	40.29
621.651	40.42
621.986	40.49
622.32	40.58
622.655	40.67
622.989	40.78
623.324	40.91
623.658	40.98
623.992	41.03
624.326	41.18
624.661	41.3
624.995	41.38
625.329	41.49
625.663	41.63
625.997	41.71
626.331	41.87
626.665	41.95
626.999	42.04
627.333	42.21
627.667	42.37
628.001	42.46
628.334	42.59
628.668	42.7
629.002	42.8
629.335	42.88
629.669	43
630.002	43.08
630.336	43.2
630.669	43.29
631.003	43.43
631.336	43.52
631.669	43.56
632.003	43.66
632.336	43.77
632.669	43.85
633.002	43.97
633.335	44.09
633.668	44.23
634.001	44.35
634.334	44.43
634.667	44.45
635	44.55
635.333	44.67
635.665	44.81
635.998	44.91
636.331	45.03
636.663	45.16
636.996	45.22
637.328	45.32
637.661	45.38
637.993	45.51
638.326	45.65
638.658	45.78
638.99	45.92
639.323	45.95
639.655	46.06
639.987	46.17
640.319	46.23
640.651	46.38
640.983	46.43
641.315	46.52
641.647	46.65
641.979	46.68
642.311	46.81
642.643	46.94
642.975	47.13
643.306	47.23
643.638	47.33
643.97	47.47
644.301	47.57
644.633	47.72
644.964	47.91
645.296	48.07
645.627	48.16
645.959	48.25
646.29	48.3
646.621	48.45
646.952	48.56
647.284	48.64
647.615	48.76
647.946	48.8
648.277	48.9
648.608	48.97
648.939	49.06
649.27	49.23
649.601	49.33
649.931	49.48
650.262	49.5
650.593	49.63
650.924	49.76
651.254	49.84
651.585	49.96
651.915	50.03
652.246	50.12
652.576	50.2
652.907	50.3
653.237	50.45
653.568	50.63
653.898	50.76
654.228	50.9
654.558	51.04
654.888	51.24
655.219	51.44
655.549	51.58
655.879	51.8
656.209	52
656.539	52.21
656.868	52.29
657.198	52.41
657.528	52.54
657.858	52.7
658.188	52.76
658.517	52.85
658.847	52.95
659.176	53.07
659.506	53.13
659.835	53.17
660.165	53.19
660.494	53.21
660.824	53.23
661.153	53.23
661.482	53.19
661.811	53.2
662.14	53.17
662.47	53.14
662.799	53.04
663.128	52.98
663.457	52.97
663.786	53.02
664.114	53.17
664.443	53.29
664.772	53.45
665.101	53.6
665.43	53.84
665.758	54.02
666.087	54.17
666.415	54.45
666.744	54.77
667.072	54.99
667.401	55.23
667.729	55.4
668.058	55.4
668.386	55.5
668.714	55.63
669.042	55.66
669.371	55.82
669.699	55.97
670.027	56.05
670.355	56.1
670.683	56.2
671.011	56.28
671.339	56.39
671.666	56.55
671.994	56.62
672.322	56.74
672.65	56.85
672.977	56.93
673.305	57
673.633	57.17
673.96	57.35
674.288	57.53
674.615	57.57
674.943	57.64
675.27	57.74
675.597	57.84
675.924	57.9
676.252	57.95
676.579	58.1
676.906	58.24
677.233	58.3
677.56	58.33
677.887	58.37
678.214	58.55
678.541	58.67
678.868	58.77
679.195	58.86
679.521	59.01
679.848	59.14
680.175	59.15
680.501	59.22
680.828	59.22
681.154	59.29
681.481	59.25
681.807	59.31
682.134	59.3
682.46	59.43
682.787	59.52
683.113	59.62
683.439	59.75
683.765	59.87
684.091	59.87
684.417	60.14
684.743	60.31
685.069	60.48
685.395	60.54
685.721	60.62
686.047	60.6
686.373	60.67
686.699	60.66
687.024	60.74
687.35	60.85
687.676	60.99
688.001	61.02
688.327	61.09
688.652	61.14
688.978	61.31
689.303	61.45
689.629	61.58
689.954	61.73
690.279	61.88
690.604	61.94
690.93	61.98
691.255	62.07
691.58	62.11
691.905	62.21
692.23	62.26
692.555	62.39
692.88	62.54
693.204	62.63
693.529	62.71
693.854	62.85
694.179	62.98
694.503	63.1
694.828	63.18
695.153	63.24
695.477	63.25
695.802	63.4
696.126	63.31
696.451	63.33
696.775	63.36
697.099	63.41
697.423	63.37
697.748	63.35
698.072	63.37
698.396	63.44
698.72	63.59
699.044	63.6
699.368	63.62
699.692	63.59
700.016	63.55
700.34	63.72
700.664	63.81
700.987	63.92
701.311	63.94
701.635	64.01
701.958	64.04
702.282	63.92
702.606	64.18
702.929	64.3
703.252	64.44
703.576	64.64
703.899	64.67
704.223	64.75
704.546	64.85
704.869	65.04
705.192	65.14
705.515	65.34
