Data from limenitis_ven_HW_orange_left_5_Reflection__0__35.txt Node

Date: Mon Dec 12 09:34:40 EST 2022
User: abbyrobinson
Spectrometer: USB2G8287
Scans to average: 10
Trigger mode: 4
Integration Time (sec): 1.000000E-1
Electric dark correction enabled: true
Boxcar width: 5
XAxis mode: Wavelengths
Number of Pixels in Spectrum: 2048
>>>>>Begin Spectral Data<<<<<
177.272	105.49
177.658	106.94
178.044	109.97
178.43	113.92
178.816	114.41
179.203	108.29
179.589	83.28
179.975	82.72
180.361	112.08
180.747	108.37
181.133	104.86
181.519	109.83
181.904	106.94
182.29	83.71
182.676	85.44
183.062	89.29
183.447	87.79
183.833	98.43
184.219	89.62
184.604	80.44
184.99	94.62
185.375	105.98
185.761	163.36
186.146	836.49
186.531	-651.61
186.917	-234
187.302	-102.09
187.687	-72.26
188.073	-53.39
188.458	-56.92
188.843	-56.47
189.228	-60.17
189.613	-85.94
189.998	-66.15
190.383	-71.61
190.768	-77.59
191.153	-71.69
191.538	-64.51
191.923	-43
192.307	-54.22
192.692	-55.34
193.077	-71.16
193.461	-78.23
193.846	-51.42
194.231	-51.33
194.615	-49.25
195	-33.27
195.384	-43.26
195.769	-54.84
196.153	-64.52
196.537	-57.7
196.922	-53.56
197.306	-34.22
197.69	-23.1
198.074	-37.6
198.458	-50.9
198.843	-54.58
199.227	-57.92
199.611	-52.92
199.995	-38.77
200.379	-54.09
200.763	-55.24
201.146	-48.67
201.53	-48.21
201.914	-43.16
202.298	-30.18
202.681	-23.6
203.065	-15.58
203.449	-18.86
203.832	-19.15
204.216	-32.52
204.599	33.67
204.983	35.97
205.366	31.31
205.75	23.7
206.133	18.13
206.516	12.08
206.9	14.76
207.283	7.86
207.666	6.88
208.049	7.61
208.432	15.03
208.815	-49.4
209.198	-60.78
209.581	-60.72
209.964	-51.51
210.347	-57.45
210.73	-48.88
211.113	-55.06
211.496	-42.17
211.879	-44.04
212.261	-50.15
212.644	-54.08
213.027	-52.34
213.409	-48.55
213.792	-52.88
214.174	-48.77
214.557	-32.32
214.939	-39.96
215.322	-36.83
215.704	-42.78
216.086	-38.11
216.469	-30.59
216.851	-32.67
217.233	-33.3
217.615	-30.65
217.997	-29.14
218.379	-32.55
218.761	-32.89
219.143	-18.1
219.525	-20.61
219.907	-16.48
220.289	-11.82
220.671	-12.83
221.053	-11.79
221.435	-11.21
221.816	-10.93
222.198	-11.28
222.58	-11.88
222.961	-11.27
223.343	-20.49
223.724	-15.21
224.106	-19.51
224.487	-24.25
224.869	-23.22
225.25	-24.19
225.631	-25.22
226.013	-18.81
226.394	-16.03
226.775	-16.28
227.156	-16.77
227.537	-16.07
227.919	-17.57
228.3	-13.52
228.681	-14.07
229.062	-14.36
229.442	-16.14
229.823	-14.62
230.204	-14
230.585	-14.87
230.966	-11.64
231.347	-11.25
231.727	-9.48
232.108	-7.86
232.488	-6.35
232.869	-4.17
233.25	-2.8
233.63	-0.21
234.01	0.58
234.391	-0.57
234.771	1.08
235.152	1.95
235.532	2.02
235.912	3
236.292	2.89
236.672	3.08
237.053	3.14
237.433	3.2
237.813	3.12
238.193	3.05
238.573	3.67
238.953	3.92
239.333	3.79
239.712	4.19
240.092	4
240.472	4.32
240.852	4.37
241.231	4.5
241.611	4.79
241.991	5.15
242.37	5.29
242.75	5.53
243.129	5.46
243.509	5.63
243.888	5.86
244.267	5.98
244.647	6.11
245.026	6.15
245.405	6.06
245.784	5.97
246.164	5.68
246.543	5.83
246.922	5.7
247.301	5.91
247.68	5.9
248.059	6.07
248.438	6.22
248.817	6.07
249.195	5.98
249.574	6.12
249.953	6.24
250.332	6.39
250.71	6.46
251.089	6.59
251.468	6.54
251.846	6.37
252.225	6.18
252.603	6.16
252.982	6.27
253.36	6.31
253.738	6.39
254.117	6.32
254.495	6.26
254.873	6.19
255.251	6.07
255.63	6.05
256.008	6.16
256.386	6.04
256.764	5.96
257.142	5.84
257.52	5.81
257.898	5.76
258.276	5.73
258.653	5.72
259.031	5.69
259.409	5.72
259.787	5.7
260.164	5.72
260.542	5.76
260.92	5.82
261.297	5.83
261.675	5.79
262.052	5.73
262.43	5.68
262.807	5.76
263.184	5.75
263.562	5.73
263.939	5.72
264.316	5.6
264.693	5.59
265.07	5.5
265.448	5.47
265.825	5.41
266.202	5.41
266.579	5.52
266.956	5.5
267.333	5.45
267.709	5.4
268.086	5.32
268.463	5.38
268.84	5.38
269.216	5.37
269.593	5.34
269.97	5.45
270.346	5.33
270.723	5.24
271.099	5.13
271.476	5.09
271.852	5.12
272.229	5.22
272.605	5.17
272.981	5.13
273.358	5.06
273.734	5.06
274.11	4.95
274.486	5.07
274.862	5.21
275.238	5.21
275.614	5.2
275.99	5.11
276.366	5.02
276.742	4.96
277.118	4.95
277.494	5.05
277.87	5.07
278.245	5.14
278.621	5
278.997	4.91
279.372	4.93
279.748	4.97
280.123	5.03
280.499	5.01
280.874	5.06
281.25	5.15
281.625	5.1
282	5.08
282.376	5.1
282.751	5.15
283.126	5.11
283.501	5.04
283.876	5.01
284.252	5.06
284.627	5.04
285.002	5.01
285.377	4.95
285.751	4.95
286.126	4.89
286.501	4.9
286.876	4.96
287.251	4.91
287.625	5.01
288	4.96
288.375	4.91
288.749	4.89
289.124	4.85
289.498	4.79
289.873	4.73
290.247	4.79
290.622	4.68
290.996	4.67
291.37	4.69
291.745	4.58
292.119	4.68
292.493	4.67
292.867	4.69
293.241	4.76
293.616	4.89
293.99	4.92
294.364	4.95
294.737	4.98
295.111	4.87
295.485	4.87
295.859	4.94
296.233	4.86
296.607	4.85
296.98	4.88
297.354	4.86
297.728	4.8
298.101	4.79
298.475	4.71
298.848	4.68
299.222	4.8
299.595	4.73
299.968	4.67
300.342	4.71
300.715	4.64
301.088	4.54
301.462	4.45
301.835	4.44
302.208	4.42
302.581	4.49
302.954	4.49
303.327	4.49
303.7	4.53
304.073	4.5
304.446	4.43
304.819	4.56
305.192	4.64
305.564	4.72
305.937	4.73
306.31	4.79
306.682	4.69
307.055	4.72
307.428	4.62
307.8	4.54
308.173	4.56
308.545	4.62
308.917	4.49
309.29	4.42
309.662	4.33
310.034	4.35
310.407	4.19
310.779	4.09
311.151	4.09
311.523	4.12
311.895	4.23
312.267	4.25
312.639	4.15
313.011	4.21
313.383	4.17
313.755	4.18
314.127	4.01
314.498	4.05
314.87	4.02
315.242	3.99
315.614	3.87
315.985	3.73
316.357	3.66
316.728	3.63
317.1	3.6
317.471	3.58
317.843	3.58
318.214	3.54
318.585	3.54
318.957	3.69
319.328	3.74
319.699	3.8
320.07	3.92
320.441	3.98
320.813	4.06
321.184	4
321.555	4.03
321.926	4.05
322.297	4.19
322.667	4.18
323.038	4.19
323.409	4.2
323.78	4.13
324.151	4.06
324.521	4.02
324.892	4.03
325.262	4.1
325.633	4.05
326.004	4.11
326.374	4.13
326.744	4.16
327.115	4.08
327.485	3.99
327.855	4.07
328.226	4.14
328.596	4.14
328.966	4.05
329.336	3.96
329.706	3.99
330.076	3.85
330.447	3.85
330.816	3.75
331.186	3.7
331.556	3.62
331.926	3.61
332.296	3.5
332.666	3.49
333.036	3.48
333.405	3.53
333.775	3.47
334.144	3.46
334.514	3.31
334.884	3.29
335.253	3.3
335.623	3.37
335.992	3.26
336.361	3.32
336.731	3.29
337.1	3.28
337.469	3.25
337.838	3.23
338.208	3.23
338.577	3.24
338.946	3.28
339.315	3.35
339.684	3.3
340.053	3.36
340.422	3.28
340.79	3.21
341.159	3.17
341.528	3.12
341.897	3.17
342.266	3.12
342.634	3.14
343.003	3.13
343.371	3
343.74	2.92
344.108	2.84
344.477	2.8
344.845	2.8
345.214	2.78
345.582	2.8
345.95	2.74
346.319	2.72
346.687	2.69
347.055	2.75
347.423	2.77
347.791	2.81
348.159	2.81
348.527	2.84
348.895	2.81
349.263	2.83
349.631	2.82
349.999	2.85
350.367	2.89
350.734	2.79
351.102	2.75
351.47	2.74
351.837	2.71
352.205	2.76
352.573	2.74
352.94	2.78
353.308	2.83
353.675	2.81
354.042	2.83
354.41	2.84
354.777	2.88
355.144	2.86
355.511	2.83
355.879	2.79
356.246	2.78
356.613	2.8
356.98	2.7
357.347	2.56
357.714	2.55
358.081	2.46
358.448	2.41
358.815	2.42
359.181	2.44
359.548	2.47
359.915	2.5
360.282	2.43
360.648	2.36
361.015	2.43
361.381	2.56
361.748	2.65
362.114	2.69
362.481	2.73
362.847	2.69
363.214	2.65
363.58	2.6
363.946	2.62
364.312	2.67
364.678	2.72
365.045	2.75
365.411	2.69
365.777	2.58
366.143	2.61
366.509	2.54
366.875	2.54
367.241	2.59
367.606	2.57
367.972	2.54
368.338	2.49
368.704	2.5
369.069	2.54
369.435	2.54
369.801	2.5
370.166	2.44
370.532	2.53
370.897	2.6
371.263	2.57
371.628	2.68
371.993	2.67
372.359	2.65
372.724	2.57
373.089	2.44
373.454	2.48
373.82	2.5
374.185	2.4
374.55	2.34
374.915	2.31
375.28	2.26
375.645	2.17
376.01	2.22
376.374	2.29
376.739	2.33
377.104	2.4
377.469	2.35
377.833	2.36
378.198	2.44
378.563	2.53
378.927	2.5
379.292	2.55
379.656	2.5
380.021	2.4
380.385	2.43
380.749	2.46
381.114	2.44
381.478	2.47
381.842	2.5
382.206	2.49
382.571	2.43
382.935	2.4
383.299	2.36
383.663	2.43
384.027	2.5
384.391	2.39
384.755	2.38
385.118	2.4
385.482	2.35
385.846	2.3
386.21	2.27
386.573	2.29
386.937	2.34
387.301	2.35
387.664	2.3
388.028	2.27
388.391	2.33
388.755	2.29
389.118	2.22
389.481	2.24
389.845	2.27
390.208	2.36
390.571	2.34
390.934	2.35
391.298	2.36
391.661	2.38
392.024	2.47
392.387	2.44
392.75	2.45
393.113	2.49
393.476	2.54
393.838	2.49
394.201	2.43
394.564	2.42
394.927	2.41
395.289	2.35
395.652	2.35
396.015	2.32
396.377	2.35
396.74	2.4
397.102	2.47
397.465	2.44
397.827	2.52
398.189	2.52
398.552	2.61
398.914	2.56
399.276	2.63
399.638	2.65
400	2.67
400.363	2.64
400.725	2.57
401.087	2.47
401.449	2.52
401.81	2.5
402.172	2.62
402.534	2.57
402.896	2.64
403.258	2.64
403.619	2.68
403.981	2.67
404.343	2.74
404.704	2.8
405.066	2.81
405.427	2.76
405.789	2.81
406.15	2.79
406.512	2.77
406.873	2.7
407.234	2.72
407.596	2.7
407.957	2.67
408.318	2.63
408.679	2.62
409.04	2.73
409.401	2.77
409.762	2.65
410.123	2.63
410.484	2.69
410.845	2.72
411.206	2.71
411.567	2.72
411.927	2.73
412.288	2.75
412.649	3.24
413.009	3.22
413.37	3.19
413.731	3.22
414.091	3.2
414.452	3.16
414.812	3.14
415.172	3.17
415.533	3.14
415.893	3.14
416.253	3.11
416.613	2.66
416.974	2.7
417.334	2.67
417.694	2.7
418.054	2.69
418.414	2.68
418.774	2.71
419.134	2.66
419.494	2.66
419.853	2.67
420.213	2.68
420.573	2.62
420.933	2.58
421.292	2.61
421.652	2.59
422.011	2.66
422.371	2.64
422.73	2.79
423.09	2.83
423.449	2.8
423.809	2.84
424.168	2.81
424.527	2.87
424.887	2.86
425.246	2.88
425.605	2.91
425.964	2.83
426.323	2.87
426.682	2.74
427.041	2.76
427.4	2.8
427.759	2.8
428.118	2.82
428.477	2.8
428.835	2.84
429.194	2.86
429.553	2.82
429.911	2.89
430.27	2.89
430.629	2.96
430.987	2.97
431.346	2.96
431.704	2.96
432.062	3.04
432.421	3.04
432.779	3.03
433.137	3.01
433.496	3.02
433.854	3
434.212	2.99
434.57	3.01
434.928	2.97
435.286	2.98
435.644	3.01
436.002	2.99
436.36	3.02
436.718	2.93
437.075	3.01
437.433	3.05
437.791	3
438.149	3
438.506	2.92
438.864	2.94
439.221	2.92
439.579	2.93
439.936	2.89
440.294	2.9
440.651	2.95
441.009	2.85
441.366	2.85
441.723	2.87
442.08	2.93
442.437	2.95
442.795	2.99
443.152	3.03
443.509	2.98
443.866	3
444.223	2.97
444.58	3
444.936	3.04
445.293	3.08
445.65	3.08
446.007	3.07
446.363	3.05
446.72	3.04
447.077	3.05
447.433	3.06
447.79	3.11
448.146	3.16
448.503	3.18
448.859	3.21
449.215	3.22
449.572	3.29
449.928	3.31
450.284	3.37
450.641	3.38
450.997	3.33
451.353	3.31
451.709	3.34
452.065	3.34
452.421	3.3
452.777	3.29
453.133	3.31
453.488	3.26
453.844	3.23
454.2	3.25
454.556	3.26
454.911	3.29
455.267	3.29
455.623	3.18
455.978	3.17
456.334	3.28
456.689	3.27
457.045	3.18
457.4	3.17
457.755	3.13
458.111	3.13
458.466	3.08
458.821	3.15
459.176	3.12
459.531	3.22
459.886	3.18
460.242	3.1
460.597	3.08
460.951	3.1
461.306	3.16
461.661	3.27
462.016	3.21
462.371	3.2
462.726	3.21
463.08	3.3
463.435	3.23
463.79	3.22
464.144	3.23
464.499	3.28
464.853	3.31
465.208	3.33
465.562	3.38
465.916	3.38
466.271	3.39
466.625	3.37
466.979	3.36
467.333	3.43
467.688	3.51
468.042	3.58
468.396	3.59
468.75	3.56
469.104	3.58
469.458	3.51
469.811	3.57
470.165	3.63
470.519	3.66
470.873	3.7
471.227	3.74
471.58	3.74
471.934	3.7
472.287	3.69
472.641	3.72
472.995	3.69
473.348	3.72
473.701	3.75
474.055	3.72
474.408	3.69
474.761	3.64
475.115	3.59
475.468	3.58
475.821	3.64
476.174	3.63
476.527	3.73
476.88	3.75
477.233	3.77
477.586	3.72
477.939	3.76
478.292	3.77
478.645	3.8
478.998	3.84
479.35	3.87
479.703	3.8
480.056	3.82
480.408	3.75
480.761	3.76
481.113	3.74
481.466	3.75
481.818	3.77
482.171	3.78
482.523	3.81
482.875	3.85
483.228	3.85
483.58	3.86
483.932	3.86
484.284	3.9
484.636	3.88
484.988	3.91
485.34	3.96
485.692	3.97
486.044	3.99
486.396	4.01
486.748	4
487.1	4.01
487.451	4.08
487.803	4.11
488.155	4.13
488.506	4.15
488.858	4.13
489.209	4.12
489.561	4.13
489.912	4.18
490.264	4.19
490.615	4.23
490.966	4.25
491.318	4.23
491.669	4.23
492.02	4.23
492.371	4.24
492.722	4.29
493.073	4.29
493.424	4.31
493.775	4.24
494.126	4.27
494.477	4.22
494.828	4.23
495.179	4.28
495.53	4.32
495.88	4.35
496.231	4.37
496.582	4.4
496.932	4.41
497.283	4.42
497.633	4.43
497.984	4.46
498.334	4.5
498.684	4.49
499.035	4.48
499.385	4.48
499.735	4.46
500.086	4.46
500.436	4.45
500.786	4.49
501.136	4.54
501.486	4.61
501.836	4.59
502.186	4.59
502.536	4.6
502.886	4.56
503.235	4.56
503.585	4.57
503.935	4.56
504.285	4.59
504.634	4.65
504.984	4.62
505.333	4.62
505.683	4.63
506.032	4.61
506.382	4.62
506.731	4.65
507.08	4.66
507.43	4.66
507.779	4.7
508.128	4.68
508.477	4.63
508.826	4.62
509.176	4.62
509.525	4.7
509.874	4.72
510.222	4.79
510.571	4.89
510.92	4.93
511.269	4.96
511.618	4.96
511.967	5.03
512.315	5.05
512.664	5.02
513.012	5.01
513.361	5
513.71	5.06
514.058	5.07
514.406	5.03
514.755	5.02
515.103	5.05
515.451	5.11
515.8	5.11
516.148	5.13
516.496	5.23
516.844	5.29
517.192	5.25
517.54	5.22
517.888	5.23
518.236	5.25
518.584	5.34
518.932	5.34
519.28	5.3
519.628	5.33
519.975	5.37
520.323	5.41
520.671	5.4
521.018	5.43
521.366	5.51
521.713	5.54
522.061	5.57
522.408	5.57
522.756	5.66
523.103	5.72
523.45	5.75
523.798	5.73
524.145	5.7
524.492	5.77
524.839	5.86
525.186	5.88
525.533	5.84
525.88	5.81
526.227	5.84
526.574	5.86
526.921	5.89
527.268	5.93
527.615	5.98
527.961	6.07
528.308	6.07
528.655	6.05
529.001	6.04
529.348	6.09
529.694	6.14
530.041	6.14
530.387	6.1
530.734	6.14
531.08	6.15
531.426	6.18
531.773	6.2
532.119	6.24
532.465	6.24
532.811	6.26
533.157	6.35
533.503	6.38
533.849	6.42
534.195	6.45
534.541	6.46
534.887	6.46
535.233	6.47
535.579	6.47
535.924	6.51
536.27	6.54
536.616	6.55
536.961	6.63
537.307	6.69
537.652	6.68
537.998	6.67
538.343	6.72
538.689	6.8
539.034	6.88
539.379	6.91
539.725	6.91
540.07	6.96
540.415	6.98
540.76	6.95
541.105	6.92
541.45	7.03
541.795	7.09
542.14	7.12
542.485	7.14
542.83	7.1
543.175	7.11
543.519	7.1
543.864	7.19
544.209	7.23
544.554	7.25
544.898	7.25
545.243	7.2
545.587	7.27
545.932	7.24
546.276	7.27
546.621	7.31
546.965	7.36
547.309	7.41
547.653	7.41
547.998	7.49
548.342	7.53
548.686	7.63
549.03	7.72
549.374	7.71
549.718	7.78
550.062	7.74
550.406	7.76
550.75	7.78
551.094	7.83
551.437	7.88
551.781	7.85
552.125	7.91
552.468	7.98
552.812	7.98
553.156	8.06
553.499	8.11
553.843	8.23
554.186	8.22
554.529	8.2
554.873	8.26
555.216	8.29
555.559	8.38
555.902	8.38
556.246	8.37
556.589	8.39
556.932	8.36
557.275	8.35
557.618	8.4
557.961	8.57
558.304	8.63
558.646	8.67
558.989	8.71
559.332	8.71
559.675	8.72
560.017	8.76
560.36	8.82
560.703	8.84
561.045	8.93
561.388	8.92
561.73	8.9
562.073	9
562.415	8.99
562.757	8.98
563.1	9
563.442	9.04
563.784	9.04
564.126	9.09
564.468	9.13
564.81	9.13
565.152	9.16
565.494	9.21
565.836	9.18
566.178	9.25
566.52	9.29
566.862	9.33
567.204	9.37
567.545	9.43
567.887	9.41
568.229	9.46
568.57	9.53
568.912	9.6
569.253	9.65
569.595	9.67
569.936	9.66
570.277	9.73
570.619	9.75
570.96	9.79
571.301	9.8
571.642	9.88
571.984	9.88
572.325	9.9
572.666	9.91
573.007	9.89
573.348	9.93
573.689	9.97
574.03	10
574.37	10.02
574.711	10.03
575.052	10.07
575.393	10.1
575.733	10.16
576.074	10.18
576.414	10.2
576.755	10.22
577.095	10.25
577.436	10.28
577.776	10.32
578.117	10.34
578.457	10.38
578.797	10.4
579.137	10.42
579.478	10.44
579.818	10.47
580.158	10.51
580.498	10.55
580.838	10.61
581.178	10.63
581.518	10.63
581.858	10.69
582.197	10.73
582.537	10.77
582.877	10.82
583.217	10.88
583.556	10.92
583.896	10.95
584.235	10.98
584.575	11.01
584.914	11.06
585.254	11.09
585.593	11.12
585.933	11.12
586.272	11.16
586.611	11.2
586.95	11.2
587.289	11.22
587.629	11.27
587.968	11.33
588.307	11.36
588.646	11.4
588.985	11.44
589.323	11.46
589.662	11.54
590.001	11.55
590.34	11.55
590.679	11.58
591.017	11.61
591.356	11.65
591.695	11.68
592.033	11.68
592.372	11.67
592.71	11.71
593.048	11.75
593.387	11.77
593.725	11.79
594.063	11.84
594.402	11.89
594.74	11.97
595.078	11.99
595.416	12
595.754	12.07
596.092	12.15
596.43	12.17
596.768	12.21
597.106	12.25
597.444	12.33
597.781	12.37
598.119	12.38
598.457	12.4
598.795	12.46
599.132	12.5
599.47	12.5
599.807	12.52
600.145	12.57
600.482	12.59
600.82	12.62
601.157	12.61
601.494	12.63
601.831	12.66
602.169	12.68
602.506	12.69
602.843	12.72
603.18	12.77
603.517	12.78
603.854	12.8
604.191	12.84
604.528	12.88
604.865	12.93
605.202	12.98
605.538	13.01
605.875	13.05
606.212	13.06
606.548	13.09
606.885	13.11
607.222	13.14
607.558	13.19
607.895	13.21
608.231	13.21
608.567	13.25
608.904	13.25
609.24	13.29
609.576	13.32
609.912	13.38
610.248	13.41
610.585	13.48
610.921	13.52
611.257	13.55
611.593	13.55
611.929	13.6
612.264	13.62
612.6	13.68
612.936	13.74
613.272	13.76
613.608	13.77
613.943	13.81
614.279	13.8
614.614	13.86
614.95	13.9
615.285	13.94
615.621	13.94
615.956	13.97
616.292	14.02
616.627	14.07
616.962	14.12
617.297	14.15
617.632	14.18
617.968	14.2
618.303	14.21
618.638	14.24
618.973	14.31
619.308	14.36
619.643	14.43
619.977	14.41
620.312	14.43
620.647	14.45
620.982	14.46
621.316	14.46
621.651	14.54
621.986	14.6
622.32	14.63
622.655	14.67
622.989	14.68
623.324	14.68
623.658	14.72
623.992	14.73
624.326	14.71
624.661	14.81
624.995	14.9
625.329	14.91
625.663	14.93
625.997	14.95
626.331	15.02
626.665	15.03
626.999	15.08
627.333	15.15
627.667	15.15
628.001	15.26
628.334	15.21
628.668	15.2
629.002	15.2
629.335	15.26
629.669	15.31
630.002	15.23
630.336	15.29
630.669	15.28
631.003	15.29
631.336	15.32
631.669	15.33
632.003	15.43
632.336	15.51
632.669	15.59
633.002	15.57
633.335	15.57
633.668	15.66
634.001	15.69
634.334	15.81
634.667	15.87
635	15.93
635.333	15.96
635.665	16
635.998	15.98
636.331	16.03
636.663	16.11
636.996	16.2
637.328	16.2
637.661	16.3
637.993	16.26
638.326	16.3
638.658	16.31
638.99	16.39
639.323	16.45
639.655	16.55
639.987	16.46
640.319	16.47
640.651	16.43
640.983	16.49
641.315	16.45
641.647	16.46
641.979	16.51
642.311	16.58
642.643	16.62
642.975	16.62
643.306	16.59
643.638	16.71
643.97	16.74
644.301	16.81
644.633	16.92
644.964	17.01
645.296	17.03
645.627	17.02
645.959	17.06
646.29	17.07
646.621	17.07
646.952	17.1
647.284	17.15
647.615	17.23
647.946	17.24
648.277	17.19
648.608	17.23
648.939	17.31
649.27	17.37
649.601	17.42
649.931	17.39
650.262	17.44
650.593	17.44
650.924	17.44
651.254	17.54
651.585	17.6
651.915	17.59
652.246	17.59
652.576	17.63
652.907	17.64
653.237	17.62
653.568	17.7
653.898	17.79
654.228	17.76
654.558	17.8
654.888	17.69
655.219	17.64
655.549	17.66
655.879	17.65
656.209	17.54
656.539	17.49
656.868	17.46
657.198	17.42
657.528	17.31
657.858	17.34
658.188	17.32
658.517	17.32
658.847	17.31
659.176	17.28
659.506	17.24
659.835	17.25
660.165	17.25
660.494	17.26
660.824	17.25
661.153	17.28
661.482	17.29
661.811	17.31
662.14	17.3
662.47	17.32
662.799	17.39
663.128	17.49
663.457	17.55
663.786	17.6
664.114	17.64
664.443	17.73
664.772	17.83
665.101	17.87
665.43	17.96
665.758	18.15
666.087	18.27
666.415	18.33
666.744	18.4
667.072	18.5
667.401	18.67
667.729	18.79
668.058	18.78
668.386	18.86
668.714	18.91
669.042	18.88
669.371	18.81
669.699	18.81
670.027	18.91
670.355	18.86
670.683	18.9
671.011	18.83
671.339	18.75
671.666	18.77
671.994	18.74
672.322	18.8
672.65	18.86
672.977	18.94
673.305	18.97
673.633	18.96
673.96	18.96
674.288	19.03
674.615	19.04
674.943	19.15
675.27	19.23
675.597	19.29
675.924	19.28
676.252	19.22
676.579	19.18
676.906	19.31
677.233	19.26
677.56	19.35
677.887	19.28
678.214	19.35
678.541	19.29
678.868	19.28
679.195	19.33
679.521	19.26
679.848	19.34
680.175	19.44
680.501	19.37
680.828	19.38
681.154	19.32
681.481	19.39
681.807	19.4
682.134	19.51
682.46	19.49
682.787	19.53
683.113	19.63
683.439	19.59
683.765	19.55
684.091	19.57
684.417	19.67
684.743	19.76
685.069	19.75
685.395	19.76
685.721	19.78
686.047	19.78
686.373	19.66
686.699	19.57
687.024	19.58
687.35	19.62
687.676	19.62
688.001	19.61
688.327	19.63
688.652	19.64
688.978	19.65
689.303	19.62
689.629	19.63
689.954	19.72
690.279	19.78
690.604	19.87
690.93	19.84
691.255	19.89
691.58	19.93
691.905	19.93
692.23	19.9
692.555	19.88
692.88	19.89
693.204	19.97
693.529	19.98
693.854	20.03
694.179	19.97
694.503	19.98
694.828	20.03
695.153	20.07
695.477	19.99
695.802	20
696.126	20.03
696.451	19.98
696.775	20
697.099	20.07
697.423	20.1
697.748	20.1
698.072	20.16
698.396	20.09
698.72	20.01
699.044	20.04
699.368	20.06
699.692	20.04
700.016	20.12
700.34	20.08
700.664	20.02
700.987	19.96
701.311	20.02
701.635	19.99
701.958	20.02
702.282	20.05
702.606	20.13
702.929	20.29
703.252	20.28
703.576	20.29
703.899	20.44
704.223	20.45
704.546	20.44
704.869	20.39
705.192	20.43
705.515	20.44
705.838	20.37
