Data from limenitis_ven_HW_orange_left_2_Reflection__0__13.txt Node

Date: Mon Dec 12 09:00:03 EST 2022
User: abbyrobinson
Spectrometer: USB2G8287
Scans to average: 10
Trigger mode: 4
Integration Time (sec): 1.000000E-1
Electric dark correction enabled: true
Boxcar width: 5
XAxis mode: Wavelengths
Number of Pixels in Spectrum: 2048
>>>>>Begin Spectral Data<<<<<
177.272	101.58
177.658	102.63
178.044	82.46
178.43	75.17
178.816	106.96
179.203	128.73
179.589	88.77
179.975	80.45
180.361	76.24
180.747	93.75
181.133	92.48
181.519	85.59
181.904	102.63
182.29	78.55
182.676	45.71
183.062	69.13
183.447	81.12
183.833	90.7
184.219	95.18
184.604	102.32
184.99	189.53
185.375	-189.33
185.761	-70.02
186.146	-27.78
186.531	-37.4
186.917	-44.58
187.302	-25.25
187.687	-17.97
188.073	-7.23
188.458	-7.82
188.843	-7.16
189.228	-3.62
189.613	-12.96
189.998	-3.12
190.383	-8.15
190.768	-11.11
191.153	-6.64
191.538	-3.46
191.923	5.51
192.307	-1.24
192.692	0.45
193.077	-4.4
193.461	-6.99
193.846	-1.09
194.231	-4.18
194.615	-4.7
195	1.05
195.384	0.15
195.769	-1.27
196.153	-6.36
196.537	-0.76
196.922	-0.09
197.306	8.26
197.69	5.42
198.074	6.08
198.458	5.69
198.843	6.47
199.227	3.24
199.611	0.36
199.995	-0.08
200.379	-3.53
200.763	-6.22
201.146	-6.07
201.53	-14.61
201.914	-8.15
202.298	-12.83
202.681	-11.36
203.065	-10.81
203.449	-9.14
203.832	-11.29
204.216	-17.12
204.599	-7.93
204.983	-5.25
205.366	-2.92
205.75	-2.96
206.133	-10.07
206.516	-10.45
206.9	-9.62
207.283	-13.56
207.666	-14.84
208.049	-10.11
208.432	-2.65
208.815	-4.41
209.198	-12.1
209.581	-14.51
209.964	-12.62
210.347	-10.49
210.73	-10.18
211.113	-11.86
211.496	-3.65
211.879	-5.52
212.261	-5.33
212.644	-6.61
213.027	-5.33
213.409	-0.6
213.792	-2
214.174	-1.32
214.557	3.51
214.939	4.28
215.322	5.87
215.704	2.02
216.086	4.87
216.469	10.27
216.851	10.23
217.233	8.82
217.615	6.48
217.997	7.87
218.379	7.67
218.761	7.43
219.143	12.82
219.525	8.41
219.907	13.04
220.289	13
220.671	10.17
221.053	7.49
221.435	8.43
221.816	8.77
222.198	9.68
222.58	11.4
222.961	11.07
223.343	6.39
223.724	9.71
224.106	7.6
224.487	6.88
224.869	7
225.25	7.63
225.631	5.81
226.013	9.61
226.394	9.33
226.775	7.47
227.156	5.87
227.537	5.78
227.919	3.8
228.3	4.33
228.681	5.52
229.062	4.74
229.442	4.38
229.823	4.56
230.204	3.83
230.585	3.07
230.966	5.21
231.347	5.56
231.727	6.27
232.108	7.83
232.488	7.83
232.869	7.38
233.25	7.41
233.63	8.32
234.01	8.33
234.391	8.35
234.771	8.82
235.152	8.45
235.532	8.28
235.912	8.67
236.292	8.27
236.672	8.38
237.053	8.67
237.433	8.95
237.813	8.98
238.193	8.78
238.573	8.39
238.953	8.44
239.333	8.31
239.712	8.42
240.092	8.29
240.472	8.14
240.852	8.13
241.231	8.29
241.611	8.38
241.991	8.53
242.37	8.74
242.75	9.01
243.129	9.04
243.509	9.28
243.888	9.43
244.267	9.33
244.647	9.38
245.026	9.33
245.405	9.18
245.784	9.06
246.164	8.83
246.543	8.84
246.922	8.63
247.301	8.54
247.68	8.33
248.059	8.41
248.438	8.49
248.817	8.49
249.195	8.56
249.574	8.58
249.953	8.63
250.332	8.59
250.71	8.54
251.089	8.64
251.468	8.61
251.846	8.55
252.225	8.45
252.603	8.45
252.982	8.49
253.36	8.4
253.738	8.38
254.117	8.27
254.495	8.35
254.873	8.31
255.251	8.27
255.63	8.29
256.008	8.35
256.386	8.29
256.764	8.22
257.142	8.19
257.52	8.16
257.898	8.1
258.276	8.16
258.653	8.15
259.031	8.11
259.409	8.06
259.787	8.1
260.164	8.15
260.542	8.15
260.92	8.24
261.297	8.25
261.675	8.28
262.052	8.32
262.43	8.27
262.807	8.26
263.184	8.28
263.562	8.36
263.939	8.31
264.316	8.18
264.693	8.14
265.07	8.02
265.448	8.02
265.825	7.96
266.202	7.93
266.579	7.97
266.956	7.96
267.333	8.03
267.709	7.98
268.086	7.94
268.463	8.05
268.84	8.11
269.216	8.18
269.593	8.08
269.97	8.12
270.346	8.13
270.723	8.11
271.099	8.09
271.476	8.03
271.852	8.05
272.229	8.12
272.605	8.11
272.981	8.11
273.358	8.05
273.734	8.11
274.11	8.05
274.486	8.11
274.862	8.15
275.238	8.1
275.614	8.08
275.99	8.01
276.366	7.99
276.742	7.92
277.118	7.87
277.494	7.9
277.87	7.98
278.245	8.01
278.621	7.99
278.997	7.98
279.372	8.05
279.748	8.09
280.123	8.11
280.499	8.08
280.874	8.08
281.25	8.12
281.625	8.11
282	8.04
282.376	8.08
282.751	8.03
283.126	8.08
283.501	8.07
283.876	8.07
284.252	8.08
284.627	8.08
285.002	8.11
285.377	8.09
285.751	8.12
286.126	8.07
286.501	8.02
286.876	8.05
287.251	8.01
287.625	8
288	7.95
288.375	7.95
288.749	7.93
289.124	7.96
289.498	7.94
289.873	7.85
290.247	7.89
290.622	7.84
290.996	7.85
291.37	7.81
291.745	7.75
292.119	7.8
292.493	7.79
292.867	7.83
293.241	7.86
293.616	7.89
293.99	7.97
294.364	8.04
294.737	8.07
295.111	8.04
295.485	8.07
295.859	8.12
296.233	8.12
296.607	8.15
296.98	8.22
297.354	8.15
297.728	8.13
298.101	8.12
298.475	8.08
298.848	8.07
299.222	8.09
299.595	8.04
299.968	7.97
300.342	7.88
300.715	7.86
301.088	7.75
301.462	7.73
301.835	7.69
302.208	7.69
302.581	7.69
302.954	7.76
303.327	7.75
303.7	7.78
304.073	7.85
304.446	7.88
304.819	7.88
305.192	7.9
305.564	7.94
305.937	8.01
306.31	8.02
306.682	8.01
307.055	8.01
307.428	7.98
307.8	7.92
308.173	7.89
308.545	7.91
308.917	7.9
309.29	7.88
309.662	7.78
310.034	7.78
310.407	7.69
310.779	7.64
311.151	7.6
311.523	7.58
311.895	7.66
312.267	7.7
312.639	7.68
313.011	7.7
313.383	7.7
313.755	7.77
314.127	7.71
314.498	7.78
314.87	7.76
315.242	7.78
315.614	7.84
315.985	7.77
316.357	7.71
316.728	7.75
317.1	7.75
317.471	7.69
317.843	7.66
318.214	7.67
318.585	7.65
318.957	7.65
319.328	7.65
319.699	7.62
320.07	7.67
320.441	7.7
320.813	7.67
321.184	7.67
321.555	7.77
321.926	7.81
322.297	7.86
322.667	7.86
323.038	7.87
323.409	7.85
323.78	7.77
324.151	7.74
324.521	7.7
324.892	7.67
325.262	7.64
325.633	7.59
326.004	7.53
326.374	7.51
326.744	7.49
327.115	7.54
327.485	7.51
327.855	7.59
328.226	7.57
328.596	7.57
328.966	7.59
329.336	7.59
329.706	7.61
330.076	7.54
330.447	7.49
330.816	7.48
331.186	7.43
331.556	7.42
331.926	7.45
332.296	7.46
332.666	7.46
333.036	7.38
333.405	7.35
333.775	7.25
334.144	7.32
334.514	7.3
334.884	7.27
335.253	7.25
335.623	7.23
335.992	7.16
336.361	7.17
336.731	7.15
337.1	7.17
337.469	7.13
337.838	7.13
338.208	7.09
338.577	7.09
338.946	7.04
339.315	7.1
339.684	7.12
340.053	7.15
340.422	7.1
340.79	7.02
341.159	6.94
341.528	6.94
341.897	6.91
342.266	6.86
342.634	6.89
343.003	6.93
343.371	6.81
343.74	6.73
344.108	6.6
344.477	6.56
344.845	6.58
345.214	6.59
345.582	6.56
345.95	6.57
346.319	6.56
346.687	6.5
347.055	6.51
347.423	6.52
347.791	6.53
348.159	6.56
348.527	6.57
348.895	6.57
349.263	6.64
349.631	6.65
349.999	6.59
350.367	6.63
350.734	6.56
351.102	6.56
351.47	6.54
351.837	6.56
352.205	6.56
352.573	6.54
352.94	6.56
353.308	6.55
353.675	6.58
354.042	6.63
354.41	6.59
354.777	6.59
355.144	6.57
355.511	6.58
355.879	6.53
356.246	6.51
356.613	6.47
356.98	6.41
357.347	6.37
357.714	6.33
358.081	6.31
358.448	6.23
358.815	6.24
359.181	6.19
359.548	6.21
359.915	6.14
360.282	6.18
360.648	6.2
361.015	6.17
361.381	6.22
361.748	6.26
362.114	6.22
362.481	6.27
362.847	6.27
363.214	6.26
363.58	6.15
363.946	6.28
364.312	6.23
364.678	6.24
365.045	6.33
365.411	6.26
365.777	6.2
366.143	6.25
366.509	6.27
366.875	6.22
367.241	6.22
367.606	6.26
367.972	6.18
368.338	6.13
368.704	6.17
369.069	6.1
369.435	6.07
369.801	6.02
370.166	5.96
370.532	5.92
370.897	5.99
371.263	5.97
371.628	5.97
371.993	5.94
372.359	6.01
372.724	5.95
373.089	5.89
373.454	5.91
373.82	5.94
374.185	5.95
374.55	6
374.915	6
375.28	5.94
375.645	5.92
376.01	5.96
376.374	5.92
376.739	5.89
377.104	5.94
377.469	5.89
377.833	5.89
378.198	5.91
378.563	5.9
378.927	5.83
379.292	5.86
379.656	5.91
380.021	5.8
380.385	5.79
380.749	5.85
381.114	5.8
381.478	5.83
381.842	5.84
382.206	5.82
382.571	5.82
382.935	5.75
383.299	5.74
383.663	5.71
384.027	5.77
384.391	5.77
384.755	5.71
385.118	5.76
385.482	5.75
385.846	5.74
386.21	5.66
386.573	5.63
386.937	5.7
387.301	5.7
387.664	5.64
388.028	5.6
388.391	5.59
388.755	5.61
389.118	5.55
389.481	5.57
389.845	5.56
390.208	5.57
390.571	5.53
390.934	5.59
391.298	5.6
391.661	5.65
392.024	5.69
392.387	5.71
392.75	5.69
393.113	5.7
393.476	5.73
393.838	5.75
394.201	5.75
394.564	5.8
394.927	5.71
395.289	5.67
395.652	5.67
396.015	5.7
396.377	5.68
396.74	5.72
397.102	5.78
397.465	5.72
397.827	5.74
398.189	5.77
398.552	5.75
398.914	5.74
399.276	5.79
399.638	5.84
400	5.84
400.363	5.84
400.725	5.83
401.087	5.75
401.449	5.78
401.81	5.74
402.172	5.8
402.534	5.79
402.896	5.81
403.258	5.82
403.619	5.77
403.981	5.76
404.343	5.77
404.704	5.79
405.066	5.81
405.427	5.79
405.789	5.83
406.15	5.8
406.512	5.79
406.873	5.82
407.234	5.82
407.596	5.81
407.957	5.79
408.318	5.8
408.679	5.78
409.04	5.82
409.401	5.86
409.762	5.81
410.123	5.78
410.484	5.8
410.845	5.81
411.206	5.79
411.567	5.8
411.927	5.83
412.288	5.82
412.649	6.13
413.009	6.13
413.37	6.11
413.731	6.13
414.091	6.19
414.452	6.17
414.812	6.2
415.172	6.22
415.533	6.26
415.893	6.27
416.253	6.26
416.613	5.95
416.974	5.95
417.334	5.91
417.694	5.93
418.054	5.87
418.414	5.88
418.774	5.83
419.134	5.85
419.494	5.83
419.853	5.84
420.213	5.85
420.573	5.82
420.933	5.82
421.292	5.89
421.652	5.88
422.011	5.95
422.371	5.97
422.73	6.02
423.09	6
423.449	5.93
423.809	5.92
424.168	5.92
424.527	5.95
424.887	5.97
425.246	5.93
425.605	5.97
425.964	5.91
426.323	5.89
426.682	5.83
427.041	5.85
427.4	5.88
427.759	5.88
428.118	5.89
428.477	5.9
428.835	5.91
429.194	5.94
429.553	5.9
429.911	5.96
430.27	5.96
430.629	6
430.987	5.98
431.346	5.97
431.704	5.97
432.062	6.01
432.421	6.01
432.779	6.02
433.137	6.02
433.496	6.02
433.854	6
434.212	5.98
434.57	5.99
434.928	5.97
435.286	5.94
435.644	5.97
436.002	5.92
436.36	5.9
436.718	5.79
437.075	5.8
437.433	5.79
437.791	5.78
438.149	5.81
438.506	5.78
438.864	5.83
439.221	5.89
439.579	5.93
439.936	5.92
440.294	5.91
440.651	6.06
441.009	6.04
441.366	6.07
441.723	6.13
442.08	6.14
442.437	6.19
442.795	6.18
443.152	6.23
443.509	6.19
443.866	6.19
444.223	6.22
444.58	6.2
444.936	6.22
445.293	6.24
445.65	6.22
446.007	6.27
446.363	6.24
446.72	6.24
447.077	6.24
447.433	6.26
447.79	6.32
448.146	6.34
448.503	6.34
448.859	6.33
449.215	6.37
449.572	6.41
449.928	6.42
450.284	6.45
450.641	6.47
450.997	6.46
451.353	6.43
451.709	6.4
452.065	6.44
452.421	6.41
452.777	6.41
453.133	6.41
453.488	6.37
453.844	6.4
454.2	6.41
454.556	6.42
454.911	6.44
455.267	6.49
455.623	6.5
455.978	6.48
456.334	6.55
456.689	6.62
457.045	6.58
457.4	6.6
457.755	6.54
458.111	6.54
458.466	6.55
458.821	6.57
459.176	6.56
459.531	6.59
459.886	6.59
460.242	6.55
460.597	6.52
460.951	6.5
461.306	6.54
461.661	6.57
462.016	6.58
462.371	6.59
462.726	6.58
463.08	6.56
463.435	6.55
463.79	6.59
464.144	6.64
464.499	6.66
464.853	6.68
465.208	6.7
465.562	6.74
465.916	6.72
466.271	6.77
466.625	6.82
466.979	6.9
467.333	6.91
467.688	6.88
468.042	6.88
468.396	6.9
468.75	6.92
469.104	6.92
469.458	6.9
469.811	7
470.165	6.99
470.519	6.99
470.873	6.96
471.227	7.01
471.58	7.06
471.934	7.04
472.287	7.02
472.641	7.05
472.995	7.05
473.348	7.04
473.701	7.02
474.055	7.04
474.408	7
474.761	7.06
475.115	7.08
475.468	7.06
475.821	7.14
476.174	7.24
476.527	7.28
476.88	7.32
477.233	7.37
477.586	7.37
477.939	7.42
478.292	7.47
478.645	7.44
478.998	7.45
479.35	7.52
479.703	7.49
480.056	7.51
480.408	7.5
480.761	7.47
481.113	7.51
481.466	7.53
481.818	7.52
482.171	7.53
482.523	7.6
482.875	7.69
483.228	7.7
483.58	7.69
483.932	7.68
484.284	7.75
484.636	7.8
484.988	7.83
485.34	7.88
485.692	7.86
486.044	7.9
486.396	7.9
486.748	7.9
487.1	7.92
487.451	7.99
487.803	8
488.155	7.99
488.506	8.05
488.858	8.08
489.209	8.09
489.561	8.15
489.912	8.17
490.264	8.2
490.615	8.23
490.966	8.27
491.318	8.3
491.669	8.33
492.02	8.39
492.371	8.4
492.722	8.42
493.073	8.47
493.424	8.52
493.775	8.51
494.126	8.55
494.477	8.58
494.828	8.61
495.179	8.64
495.53	8.69
495.88	8.74
496.231	8.76
496.582	8.8
496.932	8.84
497.283	8.9
497.633	8.94
497.984	8.98
498.334	9.02
498.684	9.03
499.035	9.06
499.385	9.1
499.735	9.09
500.086	9.11
500.436	9.17
500.786	9.18
501.136	9.17
501.486	9.25
501.836	9.3
502.186	9.34
502.536	9.41
502.886	9.42
503.235	9.46
503.585	9.52
503.935	9.52
504.285	9.56
504.634	9.63
504.984	9.67
505.333	9.67
505.683	9.71
506.032	9.72
506.382	9.7
506.731	9.78
507.08	9.8
507.43	9.86
507.779	9.91
508.128	9.93
508.477	9.94
508.826	10.01
509.176	10.1
509.525	10.14
509.874	10.21
510.222	10.36
510.571	10.42
510.92	10.53
511.269	10.59
511.618	10.7
511.967	10.77
512.315	10.85
512.664	10.86
513.012	10.89
513.361	10.94
513.71	11.01
514.058	11.06
514.406	11.09
514.755	11.07
515.103	11.11
515.451	11.16
515.8	11.18
516.148	11.22
516.496	11.33
516.844	11.41
517.192	11.48
517.54	11.47
517.888	11.51
518.236	11.59
518.584	11.69
518.932	11.75
519.28	11.76
519.628	11.8
519.975	11.86
520.323	11.93
520.671	11.98
521.018	12.06
521.366	12.15
521.713	12.18
522.061	12.23
522.408	12.28
522.756	12.38
523.103	12.47
523.45	12.6
523.798	12.68
524.145	12.76
524.492	12.82
524.839	12.91
525.186	13.03
525.533	13.11
525.88	13.17
526.227	13.24
526.574	13.26
526.921	13.34
527.268	13.39
527.615	13.43
527.961	13.49
528.308	13.53
528.655	13.61
529.001	13.63
529.348	13.72
529.694	13.82
530.041	13.89
530.387	13.98
530.734	14.07
531.08	14.13
531.426	14.25
531.773	14.35
532.119	14.44
532.465	14.47
532.811	14.58
533.157	14.67
533.503	14.76
533.849	14.88
534.195	14.92
534.541	15.06
534.887	15.14
535.233	15.21
535.579	15.28
535.924	15.37
536.27	15.47
536.616	15.6
536.961	15.65
537.307	15.72
537.652	15.81
537.998	15.87
538.343	15.97
538.689	16.06
539.034	16.17
539.379	16.22
539.725	16.28
540.07	16.37
540.415	16.4
540.76	16.54
541.105	16.66
541.45	16.71
541.795	16.83
542.14	16.85
542.485	16.94
542.83	16.99
543.175	17.1
543.519	17.18
543.864	17.22
544.209	17.27
544.554	17.33
544.898	17.38
545.243	17.46
545.587	17.57
545.932	17.68
546.276	17.74
546.621	17.77
546.965	17.83
547.309	17.94
547.653	18.04
547.998	18.1
548.342	18.16
548.686	18.27
549.03	18.35
549.374	18.4
549.718	18.41
550.062	18.44
550.406	18.55
550.75	18.67
551.094	18.77
551.437	18.86
551.781	18.95
552.125	19.07
552.468	19.15
552.812	19.26
553.156	19.37
553.499	19.49
553.843	19.68
554.186	19.78
554.529	19.85
554.873	19.87
555.216	19.93
555.559	20.05
555.902	20.08
556.246	20.15
556.589	20.22
556.932	20.3
557.275	20.34
557.618	20.44
557.961	20.57
558.304	20.61
558.646	20.75
558.989	20.88
559.332	20.89
559.675	20.96
560.017	21.04
560.36	21.1
560.703	21.19
561.045	21.34
561.388	21.31
561.73	21.38
562.073	21.49
562.415	21.55
562.757	21.58
563.1	21.69
563.442	21.76
563.784	21.84
564.126	21.93
564.468	22.02
564.81	22.09
565.152	22.24
565.494	22.33
565.836	22.38
566.178	22.46
566.52	22.53
566.862	22.61
567.204	22.76
567.545	22.82
567.887	22.91
568.229	22.93
568.57	23
568.912	23.05
569.253	23.11
569.595	23.16
569.936	23.23
570.277	23.4
570.619	23.49
570.96	23.57
571.301	23.68
571.642	23.81
571.984	23.9
572.325	23.99
572.666	24.07
573.007	24.11
573.348	24.22
573.689	24.3
574.03	24.3
574.37	24.36
574.711	24.43
575.052	24.5
575.393	24.49
575.733	24.54
576.074	24.63
576.414	24.7
576.755	24.81
577.095	24.88
577.436	24.92
577.776	25.03
578.117	25.1
578.457	25.16
578.797	25.21
579.137	25.31
579.478	25.38
579.818	25.39
580.158	25.49
580.498	25.52
580.838	25.61
581.178	25.69
581.518	25.74
581.858	25.79
582.197	25.83
582.537	25.89
582.877	25.95
583.217	26.02
583.556	26.12
583.896	26.14
584.235	26.21
584.575	26.27
584.914	26.33
585.254	26.4
585.593	26.49
585.933	26.56
586.272	26.63
586.611	26.69
586.95	26.74
587.289	26.8
587.629	26.88
587.968	26.93
588.307	26.97
588.646	27.03
588.985	27.09
589.323	27.14
589.662	27.19
590.001	27.24
590.34	27.3
590.679	27.37
591.017	27.43
591.356	27.48
591.695	27.58
592.033	27.66
592.372	27.75
592.71	27.83
593.048	27.93
593.387	28.06
593.725	28.18
594.063	28.26
594.402	28.31
594.74	28.38
595.078	28.49
595.416	28.55
595.754	28.63
596.092	28.67
596.43	28.7
596.768	28.78
597.106	28.84
597.444	28.89
597.781	28.98
598.119	29.07
598.457	29.13
598.795	29.19
599.132	29.26
599.47	29.31
599.807	29.4
600.145	29.51
600.482	29.56
600.82	29.6
601.157	29.64
601.494	29.67
601.831	29.75
602.169	29.81
602.506	29.86
602.843	29.9
603.18	29.96
603.517	30
603.854	30.06
604.191	30.11
604.528	30.19
604.865	30.23
605.202	30.31
605.538	30.4
605.875	30.46
606.212	30.55
606.548	30.65
606.885	30.75
607.222	30.84
607.558	30.89
607.895	30.98
608.231	31.02
608.567	31.12
608.904	31.17
609.24	31.18
609.576	31.26
609.912	31.33
610.248	31.35
610.585	31.4
610.921	31.43
611.257	31.54
611.593	31.57
611.929	31.62
612.264	31.64
612.6	31.71
612.936	31.79
613.272	31.83
613.608	31.81
613.943	31.9
614.279	31.95
614.614	32.05
614.95	32.07
615.285	32.14
615.621	32.21
615.956	32.29
616.292	32.36
616.627	32.39
616.962	32.49
617.297	32.55
617.632	32.57
617.968	32.6
618.303	32.65
618.638	32.68
618.973	32.75
619.308	32.81
619.643	32.84
619.977	32.9
620.312	32.99
620.647	33.04
620.982	33.08
621.316	33.16
621.651	33.19
621.986	33.27
622.32	33.36
622.655	33.4
622.989	33.44
623.324	33.56
623.658	33.59
623.992	33.59
624.326	33.61
624.661	33.71
624.995	33.77
625.329	33.85
625.663	33.83
625.997	33.83
626.331	33.94
626.665	33.98
626.999	33.96
627.333	34.04
627.667	34.08
628.001	34.17
628.334	34.23
628.668	34.29
629.002	34.34
629.335	34.45
629.669	34.49
630.002	34.5
630.336	34.52
630.669	34.61
631.003	34.65
631.336	34.77
631.669	34.78
632.003	34.78
632.336	34.78
632.669	34.88
633.002	34.88
633.335	34.89
633.668	34.88
634.001	34.96
634.334	35.02
634.667	35.06
635	35.11
635.333	35.21
635.665	35.26
635.998	35.29
636.331	35.33
636.663	35.4
636.996	35.49
637.328	35.52
637.661	35.6
637.993	35.65
638.326	35.76
638.658	35.71
638.99	35.78
639.323	35.87
639.655	35.95
639.987	36
640.319	36.01
640.651	36.06
640.983	36.21
641.315	36.23
641.647	36.22
641.979	36.25
642.311	36.34
642.643	36.31
642.975	36.35
643.306	36.39
643.638	36.4
643.97	36.5
644.301	36.64
644.633	36.66
644.964	36.73
645.296	36.82
645.627	36.82
645.959	36.89
646.29	37.03
646.621	37.07
646.952	37.19
647.284	37.21
647.615	37.22
647.946	37.23
648.277	37.31
648.608	37.38
648.939	37.46
649.27	37.54
649.601	37.62
649.931	37.59
650.262	37.64
650.593	37.71
650.924	37.85
651.254	38
651.585	38.08
651.915	38.09
652.246	38.16
652.576	38.21
652.907	38.22
653.237	38.36
653.568	38.48
653.898	38.6
654.228	38.63
654.558	38.67
654.888	38.76
655.219	38.89
655.549	39.08
655.879	39.16
656.209	39.36
656.539	39.59
656.868	39.74
657.198	39.86
657.528	39.98
657.858	40.08
658.188	40.15
658.517	40.18
658.847	40.22
659.176	40.29
659.506	40.32
659.835	40.34
660.165	40.33
660.494	40.3
660.824	40.27
661.153	40.24
661.482	40.2
661.811	40.18
662.14	40.18
662.47	40.17
662.799	40.09
663.128	40.12
663.457	40.14
663.786	40.16
664.114	40.23
664.443	40.35
664.772	40.45
665.101	40.63
665.43	40.72
665.758	40.81
666.087	40.94
666.415	41.1
666.744	41.2
667.072	41.35
667.401	41.6
667.729	41.87
668.058	42
668.386	41.99
668.714	42
669.042	42.09
669.371	42.12
669.699	42.1
670.027	42.2
670.355	42.29
670.683	42.25
671.011	42.24
671.339	42.19
671.666	42.24
671.994	42.41
672.322	42.42
672.65	42.47
672.977	42.59
673.305	42.62
673.633	42.66
673.96	42.62
674.288	42.79
674.615	42.86
674.943	42.91
675.27	42.97
675.597	42.96
675.924	43.03
676.252	43.1
676.579	43.08
676.906	43.19
677.233	43.23
677.56	43.39
677.887	43.39
678.214	43.43
678.541	43.5
678.868	43.53
679.195	43.67
679.521	43.67
679.848	43.72
680.175	43.8
680.501	43.82
680.828	43.92
681.154	43.88
681.481	43.93
681.807	44.02
682.134	44.14
682.46	44.22
682.787	44.33
683.113	44.41
683.439	44.44
683.765	44.56
684.091	44.68
684.417	44.71
684.743	44.82
685.069	44.89
685.395	44.87
685.721	44.86
686.047	44.94
686.373	44.87
686.699	44.95
687.024	45.07
687.35	45.09
687.676	45.05
688.001	45.12
688.327	45.13
688.652	45.12
688.978	45.2
689.303	45.24
689.629	45.26
689.954	45.32
690.279	45.35
690.604	45.33
690.93	45.38
691.255	45.52
691.58	45.47
691.905	45.51
692.23	45.58
692.555	45.58
692.88	45.6
693.204	45.62
693.529	45.71
693.854	45.7
694.179	45.74
694.503	45.74
694.828	45.68
695.153	45.7
695.477	45.75
695.802	45.74
696.126	45.79
696.451	45.75
696.775	45.75
697.099	45.74
697.423	45.81
697.748	45.71
698.072	45.75
698.396	45.78
698.72	45.9
699.044	45.95
699.368	46
699.692	46.01
700.016	46.05
700.34	46.15
700.664	46.25
700.987	46.31
701.311	46.49
701.635	46.47
701.958	46.46
702.282	46.46
702.606	46.46
702.929	46.66
703.252	46.75
703.576	46.76
703.899	46.85
704.223	46.8
