Data from limenitis_ven_HW_orange_right_3_Reflection__0__21.txt Node

Date: Mon Dec 12 09:08:37 EST 2022
User: abbyrobinson
Spectrometer: USB2G8287
Scans to average: 10
Trigger mode: 4
Integration Time (sec): 1.000000E-1
Electric dark correction enabled: true
Boxcar width: 5
XAxis mode: Wavelengths
Number of Pixels in Spectrum: 2048
>>>>>Begin Spectral Data<<<<<
177.272	95.94
177.658	97.9
178.044	86.08
178.43	91.24
178.816	106.55
179.203	136.56
179.589	83.63
179.975	78.87
180.361	70.12
180.747	75.68
181.133	86.05
181.519	78.55
181.904	97.9
182.29	121.96
182.676	135.94
183.062	140.65
183.447	146.84
183.833	163.47
184.219	177.83
184.604	156.08
184.99	203.88
185.375	536.08
185.761	-474
186.146	-164.68
186.531	-148.3
186.917	-101.49
187.302	-40.37
187.687	-29.61
188.073	-22.28
188.458	-23.32
188.843	-19.28
189.228	-24.61
189.613	-31.71
189.998	-20.23
190.383	-25.86
190.768	-20.37
191.153	-12.72
191.538	-11.66
191.923	-1.93
192.307	-2.51
192.692	0.91
193.077	-1.32
193.461	-3.93
193.846	-3.73
194.231	-13.38
194.615	-13.56
195	-6.56
195.384	-13.12
195.769	-13.45
196.153	-19.66
196.537	-18.95
196.922	-23.64
197.306	-17.28
197.69	-14.82
198.074	-15.29
198.458	-14.83
198.843	-11.27
199.227	-16.76
199.611	-19.89
199.995	-21.66
200.379	-26.39
200.763	-27.85
201.146	-25.33
201.53	-31.03
201.914	-31.11
202.298	-31.9
202.681	-26.09
203.065	-27.08
203.449	-29.67
203.832	-31.11
204.216	-36.1
204.599	-23.76
204.983	-19.34
205.366	-16.98
205.75	-18.52
206.133	-19.44
206.516	-19.83
206.9	-23.07
207.283	-24.64
207.666	-27.9
208.049	-20.75
208.432	-14.51
208.815	-15.27
209.198	-23.11
209.581	-23.42
209.964	-18.63
210.347	-21.84
210.73	-18.02
211.113	-16.08
211.496	-10.71
211.879	-8.48
212.261	-10.55
212.644	-11.65
213.027	-12.12
213.409	-9.94
213.792	-15.49
214.174	-18.85
214.557	-10.86
214.939	-16.04
215.322	-18.93
215.704	-24.33
216.086	-24.69
216.469	-22.14
216.851	-26.34
217.233	-26.73
217.615	-26.58
217.997	-20.52
218.379	-18.16
218.761	-17.49
219.143	-9.39
219.525	-6.82
219.907	-3.65
220.289	-0.38
220.671	-0.51
221.053	1.79
221.435	3.83
221.816	4.9
222.198	4.72
222.58	4.88
222.961	3.78
223.343	-1.48
223.724	-0.21
224.106	-4.1
224.487	-4.53
224.869	-3.76
225.25	-4.5
225.631	-5.67
226.013	-3.13
226.394	-0.83
226.775	-0.98
227.156	-0.87
227.537	0.72
227.919	0.11
228.3	3.79
228.681	3.1
229.062	2.07
229.442	1.18
229.823	1.48
230.204	0.39
230.585	-0.39
230.966	0.4
231.347	-0.34
231.727	-0.47
232.108	-0.26
232.488	-0.28
232.869	1.1
233.25	1.51
233.63	2.35
234.01	2.01
234.391	2.58
234.771	3.21
235.152	3.55
235.532	3.85
235.912	4.42
236.292	4.6
236.672	4.6
237.053	4.5
237.433	4.68
237.813	4.77
238.193	5.04
238.573	5.03
238.953	4.86
239.333	4.82
239.712	5.08
240.092	4.99
240.472	4.87
240.852	5.09
241.231	5.28
241.611	5.32
241.991	5.6
242.37	5.68
242.75	5.71
243.129	5.69
243.509	5.79
243.888	5.8
244.267	5.9
244.647	6.09
245.026	6.06
245.405	5.95
245.784	6.09
246.164	5.87
246.543	5.93
246.922	5.94
247.301	6.14
247.68	6.16
248.059	6.19
248.438	6.16
248.817	6.11
249.195	6.12
249.574	6.12
249.953	6.01
250.332	6.03
250.71	6.02
251.089	6.12
251.468	6.02
251.846	5.88
252.225	5.88
252.603	5.88
252.982	5.91
253.36	5.84
253.738	5.86
254.117	5.88
254.495	5.89
254.873	5.8
255.251	5.68
255.63	5.75
256.008	5.74
256.386	5.68
256.764	5.64
257.142	5.59
257.52	5.54
257.898	5.5
258.276	5.51
258.653	5.49
259.031	5.52
259.409	5.53
259.787	5.47
260.164	5.5
260.542	5.45
260.92	5.45
261.297	5.45
261.675	5.48
262.052	5.48
262.43	5.39
262.807	5.37
263.184	5.3
263.562	5.26
263.939	5.22
264.316	5.15
264.693	5.14
265.07	5.12
265.448	5.11
265.825	5.04
266.202	4.94
266.579	4.98
266.956	4.97
267.333	4.99
267.709	4.93
268.086	4.83
268.463	4.84
268.84	4.81
269.216	4.8
269.593	4.71
269.97	4.72
270.346	4.73
270.723	4.72
271.099	4.65
271.476	4.61
271.852	4.63
272.229	4.67
272.605	4.62
272.981	4.59
273.358	4.53
273.734	4.53
274.11	4.47
274.486	4.54
274.862	4.48
275.238	4.48
275.614	4.44
275.99	4.42
276.366	4.42
276.742	4.39
277.118	4.37
277.494	4.45
277.87	4.47
278.245	4.53
278.621	4.44
278.997	4.47
279.372	4.5
279.748	4.49
280.123	4.49
280.499	4.45
280.874	4.57
281.25	4.59
281.625	4.54
282	4.53
282.376	4.48
282.751	4.46
283.126	4.44
283.501	4.41
283.876	4.39
284.252	4.4
284.627	4.4
285.002	4.32
285.377	4.35
285.751	4.34
286.126	4.25
286.501	4.31
286.876	4.31
287.251	4.27
287.625	4.32
288	4.3
288.375	4.22
288.749	4.14
289.124	4.09
289.498	4.05
289.873	4.02
290.247	4.05
290.622	3.98
290.996	4.02
291.37	4.01
291.745	3.94
292.119	3.99
292.493	4.05
292.867	4.13
293.241	4.21
293.616	4.23
293.99	4.26
294.364	4.27
294.737	4.28
295.111	4.18
295.485	4.2
295.859	4.26
296.233	4.23
296.607	4.2
296.98	4.25
297.354	4.21
297.728	4.22
298.101	4.18
298.475	4.14
298.848	4.15
299.222	4.18
299.595	4.19
299.968	4.11
300.342	4.1
300.715	4.09
301.088	4.01
301.462	4.05
301.835	3.95
302.208	3.94
302.581	3.98
302.954	3.9
303.327	3.91
303.7	3.88
304.073	3.93
304.446	3.92
304.819	3.98
305.192	3.99
305.564	3.97
305.937	4.01
306.31	4.01
306.682	3.98
307.055	4.02
307.428	4.03
307.8	4
308.173	3.97
308.545	3.93
308.917	3.9
309.29	3.82
309.662	3.79
310.034	3.89
310.407	3.83
310.779	3.76
311.151	3.79
311.523	3.74
311.895	3.77
312.267	3.77
312.639	3.79
313.011	3.75
313.383	3.81
313.755	3.77
314.127	3.64
314.498	3.7
314.87	3.7
315.242	3.66
315.614	3.67
315.985	3.6
316.357	3.59
316.728	3.54
317.1	3.5
317.471	3.48
317.843	3.42
318.214	3.36
318.585	3.33
318.957	3.35
319.328	3.39
319.699	3.34
320.07	3.39
320.441	3.34
320.813	3.37
321.184	3.4
321.555	3.33
321.926	3.37
322.297	3.4
322.667	3.36
323.038	3.31
323.409	3.34
323.78	3.31
324.151	3.27
324.521	3.27
324.892	3.24
325.262	3.2
325.633	3.17
326.004	3.15
326.374	3.17
326.744	3.17
327.115	3.2
327.485	3.08
327.855	3.11
328.226	3.12
328.596	3.11
328.966	3.13
329.336	3.08
329.706	3.09
330.076	3.05
330.447	3.03
330.816	3
331.186	3
331.556	2.96
331.926	2.93
332.296	2.92
332.666	2.92
333.036	2.84
333.405	2.87
333.775	2.85
334.144	2.87
334.514	2.84
334.884	2.8
335.253	2.71
335.623	2.76
335.992	2.75
336.361	2.79
336.731	2.74
337.1	2.73
337.469	2.74
337.838	2.7
338.208	2.7
338.577	2.6
338.946	2.55
339.315	2.6
339.684	2.48
340.053	2.48
340.422	2.41
340.79	2.35
341.159	2.34
341.528	2.26
341.897	2.32
342.266	2.26
342.634	2.32
343.003	2.38
343.371	2.3
343.74	2.31
344.108	2.27
344.477	2.21
344.845	2.25
345.214	2.22
345.582	2.2
345.95	2.16
346.319	2.2
346.687	2.18
347.055	2.19
347.423	2.24
347.791	2.26
348.159	2.25
348.527	2.33
348.895	2.31
349.263	2.39
349.631	2.43
349.999	2.41
350.367	2.35
350.734	2.28
351.102	2.25
351.47	2.21
351.837	2.19
352.205	2.22
352.573	2.11
352.94	2.14
353.308	2.07
353.675	2.06
354.042	2.14
354.41	2.16
354.777	2.2
355.144	2.17
355.511	2.16
355.879	2.14
356.246	2.1
356.613	2.12
356.98	2.1
357.347	2.11
357.714	2.08
358.081	2.04
358.448	2.02
358.815	2
359.181	2.05
359.548	2.12
359.915	2.15
360.282	2.17
360.648	2.15
361.015	2.16
361.381	2.2
361.748	2.28
362.114	2.26
362.481	2.28
362.847	2.27
363.214	2.27
363.58	2.2
363.946	2.2
364.312	2.18
364.678	2.19
365.045	2.22
365.411	2.24
365.777	2.2
366.143	2.21
366.509	2.26
366.875	2.27
367.241	2.28
367.606	2.31
367.972	2.29
368.338	2.28
368.704	2.27
369.069	2.25
369.435	2.21
369.801	2.17
370.166	2.16
370.532	2.14
370.897	2.14
371.263	2.07
371.628	2.08
371.993	2.08
372.359	2.15
372.724	2.21
373.089	2.18
373.454	2.1
373.82	2.1
374.185	2.08
374.55	2.05
374.915	2.07
375.28	2.1
375.645	2.06
376.01	2.08
376.374	2.02
376.739	1.98
377.104	2.02
377.469	2.06
377.833	2.05
378.198	2.08
378.563	2.14
378.927	2.11
379.292	2.15
379.656	2.17
380.021	2.1
380.385	2.11
380.749	2.13
381.114	2.1
381.478	2.07
381.842	2.06
382.206	2.03
382.571	1.94
382.935	1.91
383.299	1.88
383.663	1.83
384.027	1.92
384.391	1.83
384.755	1.8
385.118	1.79
385.482	1.79
385.846	1.82
386.21	1.77
386.573	1.83
386.937	1.85
387.301	1.88
387.664	1.88
388.028	1.88
388.391	1.93
388.755	1.94
389.118	1.91
389.481	1.97
389.845	1.98
390.208	2.05
390.571	2.04
390.934	2.05
391.298	2
391.661	2.03
392.024	2.02
392.387	2.03
392.75	1.98
393.113	1.99
393.476	2
393.838	2
394.201	1.95
394.564	1.95
394.927	1.92
395.289	1.94
395.652	1.91
396.015	1.86
396.377	1.91
396.74	2
397.102	2.06
397.465	2.02
397.827	2.01
398.189	2.05
398.552	2.06
398.914	2.05
399.276	2.09
399.638	2.17
400	2.21
400.363	2.18
400.725	2.15
401.087	2.1
401.449	2.12
401.81	2.13
402.172	2.17
402.534	2.16
402.896	2.22
403.258	2.2
403.619	2.18
403.981	2.21
404.343	2.18
404.704	2.22
405.066	2.24
405.427	2.24
405.789	2.27
406.15	2.25
406.512	2.27
406.873	2.26
407.234	2.25
407.596	2.19
407.957	2.15
408.318	2.19
408.679	2.16
409.04	2.22
409.401	2.23
409.762	2.15
410.123	2.13
410.484	2.12
410.845	2.09
411.206	2.13
411.567	2.17
411.927	2.2
412.288	2.13
412.649	2.32
413.009	2.31
413.37	2.31
413.731	2.34
414.091	2.34
414.452	2.3
414.812	2.32
415.172	2.31
415.533	2.32
415.893	2.28
416.253	2.32
416.613	2.14
416.974	2.11
417.334	2.08
417.694	2.09
418.054	2.08
418.414	2.11
418.774	2.07
419.134	2.05
419.494	2.01
419.853	2.03
420.213	2.01
420.573	2.02
420.933	2.03
421.292	2.02
421.652	1.99
422.011	2.06
422.371	2.05
422.73	2.13
423.09	2.15
423.449	2.16
423.809	2.16
424.168	2.19
424.527	2.16
424.887	2.13
425.246	2.15
425.605	2.17
425.964	2.1
426.323	2.13
426.682	2.09
427.041	2.09
427.4	2.09
427.759	2.11
428.118	2.11
428.477	2.14
428.835	2.16
429.194	2.18
429.553	2.2
429.911	2.23
430.27	2.22
430.629	2.27
430.987	2.26
431.346	2.25
431.704	2.22
432.062	2.22
432.421	2.22
432.779	2.24
433.137	2.24
433.496	2.23
433.854	2.22
434.212	2.2
434.57	2.22
434.928	2.21
435.286	2.24
435.644	2.29
436.002	2.28
436.36	2.3
436.718	2.24
437.075	2.27
437.433	2.26
437.791	2.27
438.149	2.27
438.506	2.23
438.864	2.22
439.221	2.23
439.579	2.25
439.936	2.23
440.294	2.22
440.651	2.26
441.009	2.23
441.366	2.23
441.723	2.26
442.08	2.31
442.437	2.32
442.795	2.36
443.152	2.37
443.509	2.33
443.866	2.33
444.223	2.34
444.58	2.36
444.936	2.41
445.293	2.41
445.65	2.39
446.007	2.34
446.363	2.33
446.72	2.36
447.077	2.36
447.433	2.37
447.79	2.43
448.146	2.43
448.503	2.4
448.859	2.41
449.215	2.46
449.572	2.51
449.928	2.56
450.284	2.57
450.641	2.53
450.997	2.53
451.353	2.51
451.709	2.49
452.065	2.53
452.421	2.51
452.777	2.48
453.133	2.52
453.488	2.49
453.844	2.52
454.2	2.5
454.556	2.55
454.911	2.61
455.267	2.62
455.623	2.61
455.978	2.59
456.334	2.67
456.689	2.72
457.045	2.63
457.4	2.64
457.755	2.63
458.111	2.67
458.466	2.64
458.821	2.62
459.176	2.6
459.531	2.68
459.886	2.66
460.242	2.65
460.597	2.61
460.951	2.63
461.306	2.66
461.661	2.67
462.016	2.66
462.371	2.69
462.726	2.74
463.08	2.81
463.435	2.8
463.79	2.82
464.144	2.85
464.499	2.88
464.853	2.92
465.208	2.92
465.562	2.97
465.916	2.96
466.271	2.93
466.625	2.96
466.979	2.93
467.333	2.97
467.688	3.02
468.042	3.05
468.396	3.09
468.75	3.07
469.104	3.1
469.458	3.06
469.811	3.14
470.165	3.25
470.519	3.26
470.873	3.25
471.227	3.22
471.58	3.22
471.934	3.14
472.287	3.1
472.641	3.1
472.995	3.1
473.348	3.12
473.701	3.12
474.055	3.07
474.408	3.03
474.761	3.1
475.115	3.08
475.468	3.08
475.821	3.17
476.174	3.25
476.527	3.35
476.88	3.35
477.233	3.34
477.586	3.34
477.939	3.35
478.292	3.36
478.645	3.38
478.998	3.4
479.35	3.43
479.703	3.38
480.056	3.38
480.408	3.37
480.761	3.36
481.113	3.41
481.466	3.44
481.818	3.49
482.171	3.53
482.523	3.55
482.875	3.63
483.228	3.65
483.58	3.69
483.932	3.7
484.284	3.72
484.636	3.76
484.988	3.76
485.34	3.79
485.692	3.78
486.044	3.77
486.396	3.76
486.748	3.78
487.1	3.82
487.451	3.86
487.803	3.87
488.155	3.87
488.506	3.91
488.858	3.95
489.209	3.94
489.561	3.99
489.912	4.03
490.264	4.07
490.615	4.08
490.966	4.09
491.318	4.1
491.669	4.1
492.02	4.13
492.371	4.14
492.722	4.13
493.073	4.14
493.424	4.17
493.775	4.16
494.126	4.19
494.477	4.2
494.828	4.21
495.179	4.24
495.53	4.32
495.88	4.35
496.231	4.37
496.582	4.41
496.932	4.49
497.283	4.49
497.633	4.52
497.984	4.54
498.334	4.57
498.684	4.61
499.035	4.66
499.385	4.68
499.735	4.69
500.086	4.74
500.436	4.76
500.786	4.78
501.136	4.8
501.486	4.87
501.836	4.9
502.186	4.92
502.536	4.95
502.886	4.98
503.235	5.01
503.585	5.04
503.935	5.01
504.285	5.07
504.634	5.16
504.984	5.19
505.333	5.24
505.683	5.27
506.032	5.32
506.382	5.33
506.731	5.34
507.08	5.39
507.43	5.45
507.779	5.56
508.128	5.58
508.477	5.57
508.826	5.63
509.176	5.66
509.525	5.73
509.874	5.76
510.222	5.86
510.571	5.89
510.92	5.95
511.269	5.98
511.618	6.01
511.967	6.06
512.315	6.07
512.664	6.09
513.012	6.11
513.361	6.11
513.71	6.16
514.058	6.2
514.406	6.26
514.755	6.26
515.103	6.26
515.451	6.33
515.8	6.35
516.148	6.42
516.496	6.45
516.844	6.51
517.192	6.55
517.54	6.59
517.888	6.63
518.236	6.67
518.584	6.75
518.932	6.81
519.28	6.84
519.628	6.92
519.975	6.99
520.323	7.06
520.671	7.12
521.018	7.14
521.366	7.22
521.713	7.29
522.061	7.37
522.408	7.45
522.756	7.54
523.103	7.58
523.45	7.65
523.798	7.72
524.145	7.77
524.492	7.81
524.839	7.97
525.186	8.05
525.533	8.05
525.88	8.07
526.227	8.1
526.574	8.18
526.921	8.26
527.268	8.32
527.615	8.33
527.961	8.43
528.308	8.5
528.655	8.52
529.001	8.56
529.348	8.62
529.694	8.73
530.041	8.8
530.387	8.83
530.734	8.91
531.08	8.95
531.426	9.04
531.773	9.07
532.119	9.19
532.465	9.26
532.811	9.29
533.157	9.41
533.503	9.48
533.849	9.59
534.195	9.68
534.541	9.73
534.887	9.84
535.233	9.9
535.579	9.99
535.924	10.07
536.27	10.09
536.616	10.17
536.961	10.22
537.307	10.32
537.652	10.32
537.998	10.33
538.343	10.42
538.689	10.46
539.034	10.56
539.379	10.6
539.725	10.6
540.07	10.7
540.415	10.8
540.76	10.86
541.105	10.89
541.45	11.01
541.795	11.13
542.14	11.17
542.485	11.27
542.83	11.3
543.175	11.29
543.519	11.38
543.864	11.44
544.209	11.47
544.554	11.58
544.898	11.63
545.243	11.69
545.587	11.75
545.932	11.86
546.276	11.9
546.621	11.95
546.965	12.08
547.309	12.12
547.653	12.23
547.998	12.33
548.342	12.38
548.686	12.5
549.03	12.58
549.374	12.63
549.718	12.68
550.062	12.7
550.406	12.79
550.75	12.85
551.094	12.91
551.437	12.95
551.781	12.96
552.125	13.01
552.468	13.08
552.812	13.11
553.156	13.2
553.499	13.29
553.843	13.42
554.186	13.48
554.529	13.57
554.873	13.68
555.216	13.75
555.559	13.86
555.902	13.89
556.246	13.93
556.589	13.99
556.932	14.02
557.275	14.06
557.618	14.12
557.961	14.24
558.304	14.26
558.646	14.32
558.989	14.38
559.332	14.45
559.675	14.55
560.017	14.64
560.36	14.71
560.703	14.79
561.045	14.86
561.388	14.85
561.73	14.88
562.073	14.95
562.415	15.01
562.757	15.07
563.1	15.08
563.442	15.16
563.784	15.2
564.126	15.24
564.468	15.3
564.81	15.35
565.152	15.44
565.494	15.49
565.836	15.54
566.178	15.59
566.52	15.63
566.862	15.74
567.204	15.8
567.545	15.82
567.887	15.83
568.229	15.84
568.57	15.88
568.912	15.94
569.253	16.02
569.595	16.1
569.936	16.18
570.277	16.23
570.619	16.25
570.96	16.27
571.301	16.36
571.642	16.48
571.984	16.52
572.325	16.58
572.666	16.62
573.007	16.65
573.348	16.72
573.689	16.76
574.03	16.82
574.37	16.86
574.711	16.93
575.052	16.96
575.393	16.96
575.733	16.99
576.074	17.05
576.414	17.08
576.755	17.11
577.095	17.13
577.436	17.15
577.776	17.22
578.117	17.25
578.457	17.28
578.797	17.32
579.137	17.4
579.478	17.47
579.818	17.5
580.158	17.57
580.498	17.59
580.838	17.66
581.178	17.72
581.518	17.72
581.858	17.77
582.197	17.82
582.537	17.84
582.877	17.9
583.217	17.95
583.556	17.98
583.896	18.02
584.235	18.07
584.575	18.11
584.914	18.14
585.254	18.23
585.593	18.31
585.933	18.35
586.272	18.44
586.611	18.47
586.95	18.51
587.289	18.6
587.629	18.65
587.968	18.69
588.307	18.75
588.646	18.83
588.985	18.85
589.323	18.88
589.662	18.97
590.001	18.99
590.34	19.03
590.679	19.06
591.017	19.1
591.356	19.17
591.695	19.28
592.033	19.31
592.372	19.33
592.71	19.39
593.048	19.45
593.387	19.47
593.725	19.54
594.063	19.59
594.402	19.64
594.74	19.72
595.078	19.77
595.416	19.75
595.754	19.82
596.092	19.91
596.43	19.95
596.768	20
597.106	20.08
597.444	20.16
597.781	20.23
598.119	20.31
598.457	20.34
598.795	20.37
599.132	20.43
599.47	20.46
599.807	20.5
600.145	20.57
600.482	20.58
600.82	20.62
601.157	20.64
601.494	20.65
601.831	20.67
602.169	20.69
602.506	20.78
602.843	20.87
603.18	20.91
603.517	20.94
603.854	20.99
604.191	21.06
604.528	21.1
604.865	21.15
605.202	21.18
605.538	21.22
605.875	21.28
606.212	21.3
606.548	21.3
606.885	21.34
607.222	21.39
607.558	21.38
607.895	21.42
608.231	21.48
608.567	21.53
608.904	21.57
609.24	21.64
609.576	21.68
609.912	21.69
610.248	21.74
610.585	21.76
610.921	21.81
611.257	21.86
611.593	21.89
611.929	21.91
612.264	21.92
612.6	21.95
612.936	21.95
613.272	21.96
613.608	22.04
613.943	22.07
614.279	22.13
614.614	22.14
614.95	22.15
615.285	22.19
615.621	22.23
615.956	22.26
616.292	22.35
616.627	22.43
616.962	22.47
617.297	22.49
617.632	22.55
617.968	22.57
618.303	22.65
618.638	22.72
618.973	22.73
619.308	22.78
619.643	22.83
619.977	22.82
620.312	22.84
620.647	22.91
620.982	22.94
621.316	22.92
621.651	23.01
621.986	23.04
622.32	23.11
622.655	23.22
622.989	23.23
623.324	23.29
623.658	23.33
623.992	23.36
624.326	23.41
624.661	23.48
624.995	23.59
625.329	23.62
625.663	23.64
625.997	23.64
626.331	23.67
626.665	23.67
626.999	23.73
627.333	23.78
627.667	23.79
628.001	23.79
628.334	23.8
628.668	23.86
629.002	23.86
629.335	23.92
629.669	23.98
630.002	24
630.336	24.09
630.669	24.1
631.003	24.18
631.336	24.22
631.669	24.27
632.003	24.34
632.336	24.35
632.669	24.42
633.002	24.49
633.335	24.5
633.668	24.55
634.001	24.57
634.334	24.61
634.667	24.59
635	24.67
635.333	24.7
635.665	24.72
635.998	24.76
636.331	24.78
636.663	24.79
636.996	24.84
637.328	24.87
637.661	24.9
637.993	24.94
638.326	25.02
638.658	24.96
638.99	25.01
639.323	25.05
639.655	25.07
639.987	25.05
640.319	25.03
640.651	25.11
640.983	25.12
641.315	25.17
641.647	25.23
641.979	25.27
642.311	25.36
642.643	25.37
642.975	25.33
643.306	25.38
643.638	25.45
643.97	25.52
644.301	25.57
644.633	25.68
644.964	25.73
645.296	25.77
645.627	25.78
645.959	25.77
646.29	25.79
646.621	25.87
646.952	25.92
647.284	25.94
647.615	26
647.946	25.98
648.277	25.96
648.608	25.94
648.939	25.91
649.27	25.98
649.601	25.98
649.931	25.98
650.262	26.03
650.593	26.07
650.924	26.05
651.254	26.11
651.585	26.1
651.915	26.09
652.246	26.12
652.576	26.11
652.907	26.07
653.237	26.15
653.568	26.24
653.898	26.33
654.228	26.29
654.558	26.31
654.888	26.29
655.219	26.35
655.549	26.36
655.879	26.3
656.209	26.16
656.539	26.05
656.868	25.97
657.198	25.91
657.528	25.86
657.858	25.84
658.188	25.82
658.517	25.81
658.847	25.81
659.176	25.81
659.506	25.84
659.835	25.89
660.165	25.94
660.494	25.99
660.824	26.04
661.153	26.09
661.482	26.15
661.811	26.25
662.14	26.32
662.47	26.4
662.799	26.47
663.128	26.55
663.457	26.63
663.786	26.68
664.114	26.78
664.443	26.81
664.772	26.83
665.101	26.9
665.43	26.91
665.758	27.01
666.087	27.08
666.415	27.17
666.744	27.25
667.072	27.27
667.401	27.45
667.729	27.51
668.058	27.64
668.386	27.74
668.714	27.74
669.042	27.76
669.371	27.73
669.699	27.76
670.027	27.85
670.355	27.8
670.683	27.88
671.011	27.85
671.339	27.88
671.666	27.86
671.994	27.83
672.322	27.86
672.65	27.85
672.977	27.85
673.305	27.87
673.633	27.82
673.96	27.83
674.288	27.88
674.615	27.94
674.943	27.91
675.27	27.95
675.597	27.99
675.924	28.03
676.252	28.05
676.579	28.08
676.906	28.12
677.233	28.15
677.56	28.3
677.887	28.26
678.214	28.24
678.541	28.25
678.868	28.22
679.195	28.22
679.521	28.11
679.848	28.2
680.175	28.26
680.501	28.23
680.828	28.22
681.154	28.14
681.481	28.14
681.807	28.23
682.134	28.28
682.46	28.33
682.787	28.39
683.113	28.52
683.439	28.49
683.765	28.46
684.091	28.51
684.417	28.5
684.743	28.55
685.069	28.57
685.395	28.55
685.721	28.51
686.047	28.56
686.373	28.57
686.699	28.6
687.024	28.61
687.35	28.66
687.676	28.69
688.001	28.71
688.327	28.7
688.652	28.78
688.978	28.81
689.303	28.86
689.629	28.9
689.954	28.89
690.279	28.9
690.604	28.94
690.93	28.95
691.255	29.01
691.58	29.07
691.905	29.18
692.23	29.2
692.555	29.23
692.88	29.18
693.204	29.15
693.529	29.15
693.854	29.16
694.179	29.13
694.503	29.08
694.828	29.12
695.153	29.18
695.477	29.14
695.802	29.12
696.126	29.13
696.451	29.2
696.775	29.26
697.099	29.24
697.423	29.26
697.748	29.28
698.072	29.36
698.396	29.37
698.72	29.33
699.044	29.27
699.368	29.3
699.692	29.37
700.016	29.37
700.34	29.43
700.664	29.49
700.987	29.55
701.311	29.58
701.635	29.57
701.958	29.57
702.282	29.6
702.606	29.7
702.929	29.75
703.252	29.68
703.576	29.69
