Data from polyxenes_ven_HW_orange_right_8_Reflection__0__64.txt Node

Date: Sun Dec 11 12:55:34 EST 2022
User: abbyrobinson
Spectrometer: USB2G8287
Scans to average: 10
Trigger mode: 4
Integration Time (sec): 1.000000E-1
Electric dark correction enabled: true
Boxcar width: 5
XAxis mode: Wavelengths
Number of Pixels in Spectrum: 2048
>>>>>Begin Spectral Data<<<<<
177.272	86.05
177.658	85.67
178.044	106.2
178.43	176.36
178.816	243.86
179.203	269.52
179.589	68.46
179.975	127.32
180.361	199.19
180.747	194.02
181.133	124.84
181.519	87.13
181.904	85.67
182.29	98.78
182.676	162.22
183.062	137.55
183.447	172.43
183.833	193.69
184.219	-2055.56
184.604	-1522.22
184.99	-12.28
185.375	12.91
185.761	-14.33
186.146	-5.94
186.531	6.58
186.917	9.66
187.302	8.81
187.687	17.74
188.073	18.13
188.458	23.37
188.843	23.85
189.228	22.28
189.613	19.36
189.998	19.93
190.383	22.71
190.768	23.52
191.153	24.5
191.538	24.47
191.923	22.3
192.307	17.88
192.692	13.42
193.077	11.84
193.461	14.49
193.846	18.18
194.231	18.2
194.615	14.67
195	15.98
195.384	15.5
195.769	18.69
196.153	19.8
196.537	22.02
196.922	23.71
197.306	26.48
197.69	27.69
198.074	21.74
198.458	27.28
198.843	29.22
199.227	23.91
199.611	25.29
199.995	22.08
200.379	18.48
200.763	21.56
201.146	25.24
201.53	24.05
201.914	19.78
202.298	22.66
202.681	20.88
203.065	24.44
203.449	26.66
203.832	29.61
204.216	33.22
204.599	41.29
204.983	41.13
205.366	39.07
205.75	37.69
206.133	40.79
206.516	41.31
206.9	42.25
207.283	43.86
207.666	42.89
208.049	39.7
208.432	38.12
208.815	33.38
209.198	30.2
209.581	26.56
209.964	26.64
210.347	26.49
210.73	25.5
211.113	24.92
211.496	21.17
211.879	23.2
212.261	23.41
212.644	23.16
213.027	25.6
213.409	25.14
213.792	28.93
214.174	29.48
214.557	29.3
214.939	29.5
215.322	26.84
215.704	28.21
216.086	28.31
216.469	26.02
216.851	28.64
217.233	25.61
217.615	25.69
217.997	24.26
218.379	21.51
218.761	17.65
219.143	18.59
219.525	19.58
219.907	18.09
220.289	13.86
220.671	15.07
221.053	12.45
221.435	9.59
221.816	12.45
222.198	12.63
222.58	13.43
222.961	17.23
223.343	12.31
223.724	12.5
224.106	12.68
224.487	16.9
224.869	19.57
225.25	20.61
225.631	20.74
226.013	19.93
226.394	19.71
226.775	19.33
227.156	17.66
227.537	20.04
227.919	19.96
228.3	20.38
228.681	18.53
229.062	16.89
229.442	15.22
229.823	15.47
230.204	14.24
230.585	13.73
230.966	13.48
231.347	13.68
231.727	13.6
232.108	12.18
232.488	10.88
232.869	11.02
233.25	11.81
233.63	11.22
234.01	11.31
234.391	11.31
234.771	11.49
235.152	11.63
235.532	11.68
235.912	10.99
236.292	11.73
236.672	11.66
237.053	11.27
237.433	10.47
237.813	10.59
238.193	10.09
238.573	10.2
238.953	9.98
239.333	9.78
239.712	9.4
240.092	9.47
240.472	9.18
240.852	9.31
241.231	9.35
241.611	9.33
241.991	9.37
242.37	9.6
242.75	9.58
243.129	9.72
243.509	9.66
243.888	9.66
244.267	9.66
244.647	9.72
245.026	9.72
245.405	9.85
245.784	10
246.164	9.98
246.543	9.86
246.922	9.84
247.301	9.7
247.68	9.69
248.059	9.78
248.438	9.92
248.817	9.86
249.195	9.85
249.574	9.8
249.953	9.7
250.332	9.66
250.71	9.64
251.089	9.68
251.468	9.76
251.846	9.72
252.225	9.68
252.603	9.63
252.982	9.59
253.36	9.48
253.738	9.45
254.117	9.44
254.495	9.42
254.873	9.51
255.251	9.5
255.63	9.43
256.008	9.45
256.386	9.44
256.764	9.38
257.142	9.47
257.52	9.56
257.898	9.62
258.276	9.68
258.653	9.69
259.031	9.69
259.409	9.6
259.787	9.61
260.164	9.64
260.542	9.67
260.92	9.66
261.297	9.61
261.675	9.59
262.052	9.52
262.43	9.52
262.807	9.52
263.184	9.44
263.562	9.48
263.939	9.49
264.316	9.46
264.693	9.41
265.07	9.37
265.448	9.36
265.825	9.36
266.202	9.38
266.579	9.32
266.956	9.33
267.333	9.28
267.709	9.33
268.086	9.29
268.463	9.3
268.84	9.28
269.216	9.27
269.593	9.19
269.97	9.15
270.346	9.15
270.723	9.15
271.099	9.05
271.476	9.08
271.852	9.01
272.229	9.03
272.605	9.01
272.981	8.99
273.358	9.03
273.734	9.06
274.11	9.03
274.486	9
274.862	9
275.238	9
275.614	8.95
275.99	8.92
276.366	8.82
276.742	8.75
277.118	8.77
277.494	8.71
277.87	8.76
278.245	8.72
278.621	8.69
278.997	8.56
279.372	8.52
279.748	8.51
280.123	8.53
280.499	8.56
280.874	8.6
281.25	8.54
281.625	8.53
282	8.39
282.376	8.33
282.751	8.27
283.126	8.25
283.501	8.25
283.876	8.22
284.252	8.09
284.627	8.04
285.002	7.97
285.377	7.93
285.751	7.86
286.126	7.86
286.501	7.85
286.876	7.82
287.251	7.82
287.625	7.8
288	7.71
288.375	7.74
288.749	7.7
289.124	7.64
289.498	7.64
289.873	7.68
290.247	7.62
290.622	7.59
290.996	7.54
291.37	7.51
291.745	7.5
292.119	7.5
292.493	7.43
292.867	7.42
293.241	7.45
293.616	7.35
293.99	7.27
294.364	7.26
294.737	7.26
295.111	7.23
295.485	7.23
295.859	7.22
296.233	7.21
296.607	7.24
296.98	7.21
297.354	7.15
297.728	7.16
298.101	7.14
298.475	7.1
298.848	7
299.222	7.02
299.595	6.98
299.968	6.91
300.342	6.86
300.715	6.84
301.088	6.81
301.462	6.81
301.835	6.78
302.208	6.72
302.581	6.75
302.954	6.85
303.327	6.79
303.7	6.73
304.073	6.67
304.446	6.67
304.819	6.61
305.192	6.57
305.564	6.5
305.937	6.53
306.31	6.52
306.682	6.49
307.055	6.4
307.428	6.39
307.8	6.45
308.173	6.47
308.545	6.45
308.917	6.42
309.29	6.34
309.662	6.33
310.034	6.31
310.407	6.32
310.779	6.33
311.151	6.32
311.523	6.32
311.895	6.21
312.267	6.23
312.639	6.16
313.011	6.19
313.383	6.27
313.755	6.33
314.127	6.22
314.498	6.24
314.87	6.2
315.242	6.2
315.614	6.11
315.985	6.2
316.357	6.14
316.728	6.22
317.1	6.12
317.471	6.07
317.843	6.03
318.214	6.1
318.585	6.04
318.957	5.98
319.328	5.93
319.699	5.96
320.07	5.89
320.441	5.9
320.813	5.85
321.184	5.91
321.555	5.88
321.926	5.8
322.297	5.83
322.667	5.88
323.038	5.91
323.409	5.93
323.78	5.92
324.151	5.88
324.521	5.9
324.892	5.85
325.262	5.85
325.633	5.89
326.004	5.95
326.374	5.88
326.744	5.87
327.115	5.88
327.485	5.84
327.855	5.79
328.226	5.8
328.596	5.77
328.966	5.83
329.336	5.76
329.706	5.78
330.076	5.77
330.447	5.75
330.816	5.67
331.186	5.66
331.556	5.64
331.926	5.77
332.296	5.79
332.666	5.74
333.036	5.73
333.405	5.74
333.775	5.63
334.144	5.55
334.514	5.6
334.884	5.61
335.253	5.59
335.623	5.6
335.992	5.51
336.361	5.45
336.731	5.46
337.1	5.41
337.469	5.45
337.838	5.54
338.208	5.57
338.577	5.54
338.946	5.54
339.315	5.53
339.684	5.53
340.053	5.54
340.422	5.59
340.79	5.58
341.159	5.59
341.528	5.56
341.897	5.51
342.266	5.56
342.634	5.53
343.003	5.53
343.371	5.49
343.74	5.46
344.108	5.48
344.477	5.53
344.845	5.51
345.214	5.5
345.582	5.5
345.95	5.51
346.319	5.45
346.687	5.47
347.055	5.42
347.423	5.42
347.791	5.46
348.159	5.42
348.527	5.36
348.895	5.37
349.263	5.41
349.631	5.41
349.999	5.36
350.367	5.32
350.734	5.31
351.102	5.3
351.47	5.29
351.837	5.26
352.205	5.23
352.573	5.25
352.94	5.21
353.308	5.15
353.675	5.13
354.042	5.15
354.41	5.2
354.777	5.16
355.144	5.13
355.511	5.13
355.879	5.13
356.246	5.1
356.613	5.04
356.98	5.05
357.347	5.04
357.714	5.02
358.081	5
358.448	4.95
358.815	4.91
359.181	4.98
359.548	5.02
359.915	5.05
360.282	5.09
360.648	5.09
361.015	5.15
361.381	5.21
361.748	5.17
362.114	5.19
362.481	5.21
362.847	5.32
363.214	5.21
363.58	5.17
363.946	5.13
364.312	5.11
364.678	5.04
365.045	4.98
365.411	4.91
365.777	4.93
366.143	4.94
366.509	4.92
366.875	4.85
367.241	4.95
367.606	4.95
367.972	4.93
368.338	4.85
368.704	4.9
369.069	4.88
369.435	4.86
369.801	4.82
370.166	4.85
370.532	4.89
370.897	4.87
371.263	4.81
371.628	4.8
371.993	4.77
372.359	4.85
372.724	4.78
373.089	4.82
373.454	4.83
373.82	4.83
374.185	4.77
374.55	4.7
374.915	4.64
375.28	4.73
375.645	4.72
376.01	4.72
376.374	4.69
376.739	4.77
377.104	4.75
377.469	4.74
377.833	4.73
378.198	4.72
378.563	4.76
378.927	4.78
379.292	4.73
379.656	4.75
380.021	4.77
380.385	4.79
380.749	4.76
381.114	4.77
381.478	4.83
381.842	4.84
382.206	4.87
382.571	4.84
382.935	4.84
383.299	4.8
383.663	4.78
384.027	4.77
384.391	4.68
384.755	4.68
385.118	4.66
385.482	4.64
385.846	4.68
386.21	4.68
386.573	4.7
386.937	4.73
387.301	4.76
387.664	4.76
388.028	4.77
388.391	4.82
388.755	4.83
389.118	4.83
389.481	4.83
389.845	4.78
390.208	4.75
390.571	4.71
390.934	4.69
391.298	4.67
391.661	4.66
392.024	4.68
392.387	4.67
392.75	4.64
393.113	4.61
393.476	4.59
393.838	4.6
394.201	4.61
394.564	4.67
394.927	4.71
395.289	4.75
395.652	4.76
396.015	4.77
396.377	4.79
396.74	4.79
397.102	4.79
397.465	4.75
397.827	4.72
398.189	4.73
398.552	4.68
398.914	4.63
399.276	4.65
399.638	4.68
400	4.61
400.363	4.61
400.725	4.63
401.087	4.63
401.449	4.66
401.81	4.67
402.172	4.66
402.534	4.66
402.896	4.67
403.258	4.66
403.619	4.64
403.981	4.67
404.343	4.67
404.704	4.7
405.066	4.77
405.427	4.77
405.789	4.78
406.15	4.8
406.512	4.85
406.873	4.84
407.234	4.83
407.596	4.79
407.957	4.81
408.318	4.85
408.679	4.83
409.04	4.8
409.401	4.78
409.762	4.75
410.123	4.75
410.484	4.73
410.845	4.75
411.206	4.74
411.567	4.77
411.927	4.75
412.288	4.71
412.649	4.5
413.009	4.45
413.37	4.48
413.731	4.49
414.091	4.5
414.452	4.47
414.812	4.49
415.172	4.51
415.533	4.48
415.893	4.52
416.253	4.52
416.613	4.74
416.974	4.83
417.334	4.82
417.694	4.81
418.054	4.78
418.414	4.78
418.774	4.77
419.134	4.76
419.494	4.78
419.853	4.76
420.213	4.8
420.573	4.79
420.933	4.76
421.292	4.8
421.652	4.85
422.011	4.92
422.371	4.99
422.73	4.98
423.09	4.98
423.449	5
423.809	5.03
424.168	5
424.527	5
424.887	5.02
425.246	5
425.605	5
425.964	4.98
426.323	4.92
426.682	4.98
427.041	4.96
427.4	4.96
427.759	4.91
428.118	4.91
428.477	4.9
428.835	4.92
429.194	4.97
429.553	4.98
429.911	4.97
430.27	4.99
430.629	4.93
430.987	4.96
431.346	4.98
431.704	5.02
432.062	5.07
432.421	5.09
432.779	5.06
433.137	5.03
433.496	5.04
433.854	5.03
434.212	5.08
434.57	5.16
434.928	5.17
435.286	5.2
435.644	5.18
436.002	5.16
436.36	5.18
436.718	5.21
437.075	5.24
437.433	5.29
437.791	5.32
438.149	5.35
438.506	5.34
438.864	5.34
439.221	5.29
439.579	5.33
439.936	5.36
440.294	5.37
440.651	5.4
441.009	5.41
441.366	5.41
441.723	5.43
442.08	5.41
442.437	5.43
442.795	5.45
443.152	5.51
443.509	5.52
443.866	5.56
444.223	5.6
444.58	5.63
444.936	5.69
445.293	5.71
445.65	5.76
446.007	5.79
446.363	5.79
446.72	5.78
447.077	5.76
447.433	5.78
447.79	5.8
448.146	5.81
448.503	5.82
448.859	5.79
449.215	5.8
449.572	5.8
449.928	5.8
450.284	5.82
450.641	5.89
450.997	5.94
451.353	6
451.709	6.04
452.065	6.1
452.421	6.11
452.777	6.15
453.133	6.23
453.488	6.24
453.844	6.28
454.2	6.32
454.556	6.37
454.911	6.46
455.267	6.46
455.623	6.49
455.978	6.48
456.334	6.5
456.689	6.52
457.045	6.53
457.4	6.58
457.755	6.63
458.111	6.69
458.466	6.71
458.821	6.74
459.176	6.77
459.531	6.79
459.886	6.81
460.242	6.9
460.597	6.95
460.951	6.96
461.306	6.96
461.661	6.96
462.016	6.96
462.371	7.02
462.726	7
463.08	7.02
463.435	7.02
463.79	7.1
464.144	7.07
464.499	7.07
464.853	7.07
465.208	7.16
465.562	7.21
465.916	7.24
466.271	7.2
466.625	7.25
466.979	7.3
467.333	7.37
467.688	7.39
468.042	7.43
468.396	7.49
468.75	7.5
469.104	7.48
469.458	7.49
469.811	7.54
470.165	7.61
470.519	7.62
470.873	7.63
471.227	7.67
471.58	7.67
471.934	7.71
472.287	7.76
472.641	7.85
472.995	7.96
473.348	8.05
473.701	8.08
474.055	8.11
474.408	8.17
474.761	8.24
475.115	8.26
475.468	8.31
475.821	8.32
476.174	8.35
476.527	8.35
476.88	8.35
477.233	8.39
477.586	8.47
477.939	8.49
478.292	8.52
478.645	8.55
478.998	8.57
479.35	8.58
479.703	8.63
480.056	8.65
480.408	8.73
480.761	8.8
481.113	8.79
481.466	8.82
481.818	8.88
482.171	8.9
482.523	8.95
482.875	9
483.228	9.06
483.58	9.12
483.932	9.18
484.284	9.2
484.636	9.22
484.988	9.27
485.34	9.32
485.692	9.39
486.044	9.47
486.396	9.53
486.748	9.58
487.1	9.62
487.451	9.65
487.803	9.69
488.155	9.72
488.506	9.78
488.858	9.81
489.209	9.86
489.561	9.87
489.912	9.9
490.264	9.91
490.615	9.96
490.966	10.01
491.318	10.07
491.669	10.1
492.02	10.19
492.371	10.22
492.722	10.31
493.073	10.36
493.424	10.5
493.775	10.57
494.126	10.66
494.477	10.72
494.828	10.79
495.179	10.87
495.53	10.95
495.88	11.01
496.231	11.08
496.582	11.09
496.932	11.18
497.283	11.18
497.633	11.26
497.984	11.32
498.334	11.4
498.684	11.45
499.035	11.51
499.385	11.61
499.735	11.65
500.086	11.72
500.436	11.84
500.786	11.89
501.136	12.01
501.486	12.06
501.836	12.14
502.186	12.2
502.536	12.32
502.886	12.44
503.235	12.53
503.585	12.68
503.935	12.78
504.285	12.87
504.634	12.97
504.984	13.02
505.333	13.09
505.683	13.2
506.032	13.32
506.382	13.41
506.731	13.44
507.08	13.5
507.43	13.5
507.779	13.63
508.128	13.7
508.477	13.79
508.826	13.91
509.176	14.04
509.525	14.15
509.874	14.2
510.222	14.29
510.571	14.37
510.92	14.47
511.269	14.65
511.618	14.75
511.967	14.84
512.315	14.96
512.664	15.06
513.012	15.13
513.361	15.21
513.71	15.38
514.058	15.5
514.406	15.63
514.755	15.73
515.103	15.85
515.451	15.99
515.8	16.16
516.148	16.29
516.496	16.4
516.844	16.55
517.192	16.71
517.54	16.77
517.888	16.83
518.236	17
518.584	17.15
518.932	17.26
519.28	17.34
519.628	17.44
519.975	17.51
520.323	17.64
520.671	17.75
521.018	17.83
521.366	17.99
521.713	18.15
522.061	18.27
522.408	18.41
522.756	18.5
523.103	18.64
523.45	18.77
523.798	18.92
524.145	19.06
524.492	19.2
524.839	19.31
525.186	19.44
525.533	19.6
525.88	19.7
526.227	19.84
526.574	20.01
526.921	20.2
527.268	20.31
527.615	20.43
527.961	20.55
528.308	20.72
528.655	20.91
529.001	21.07
529.348	21.23
529.694	21.43
530.041	21.56
530.387	21.66
530.734	21.75
531.08	21.9
531.426	22.05
531.773	22.2
532.119	22.4
532.465	22.52
532.811	22.68
533.157	22.8
533.503	22.93
533.849	23.12
534.195	23.32
534.541	23.51
534.887	23.66
535.233	23.82
535.579	23.97
535.924	24.07
536.27	24.18
536.616	24.3
536.961	24.45
537.307	24.52
537.652	24.6
537.998	24.73
538.343	24.85
538.689	25.02
539.034	25.24
539.379	25.4
539.725	25.58
540.07	25.78
540.415	25.94
540.76	26.11
541.105	26.31
541.45	26.49
541.795	26.63
542.14	26.75
542.485	26.94
542.83	27.02
543.175	27.16
543.519	27.29
543.864	27.45
544.209	27.62
544.554	27.71
544.898	27.88
545.243	28
545.587	28.13
545.932	28.3
546.276	28.39
546.621	28.58
546.965	28.72
547.309	28.87
547.653	28.98
547.998	29.09
548.342	29.19
548.686	29.29
549.03	29.45
549.374	29.6
549.718	29.76
550.062	29.9
550.406	29.94
550.75	30.06
551.094	30.19
551.437	30.35
551.781	30.52
552.125	30.79
552.468	30.92
552.812	31.08
553.156	31.29
553.499	31.4
553.843	31.5
554.186	31.7
554.529	31.84
554.873	31.97
555.216	32.1
555.559	32.2
555.902	32.36
556.246	32.51
556.589	32.63
556.932	32.67
557.275	32.79
557.618	33.01
557.961	33.17
558.304	33.32
558.646	33.48
558.989	33.62
559.332	33.75
559.675	33.8
560.017	33.94
560.36	34.06
560.703	34.18
561.045	34.34
561.388	34.43
561.73	34.59
562.073	34.7
562.415	34.78
562.757	34.91
563.1	35.08
563.442	35.17
563.784	35.29
564.126	35.44
564.468	35.6
564.81	35.69
565.152	35.81
565.494	35.85
565.836	35.99
566.178	36.17
566.52	36.29
566.862	36.38
567.204	36.53
567.545	36.66
567.887	36.79
568.229	36.89
568.57	37
568.912	37.14
569.253	37.27
569.595	37.4
569.936	37.5
570.277	37.57
570.619	37.68
570.96	37.79
571.301	37.87
571.642	37.94
571.984	38.04
572.325	38.12
572.666	38.17
573.007	38.3
573.348	38.36
573.689	38.41
574.03	38.55
574.37	38.65
574.711	38.71
575.052	38.82
575.393	38.9
575.733	39.03
576.074	39.12
576.414	39.22
576.755	39.27
577.095	39.37
577.436	39.48
577.776	39.58
578.117	39.66
578.457	39.77
578.797	39.85
579.137	39.95
579.478	40.03
579.818	40.13
580.158	40.25
580.498	40.37
580.838	40.48
581.178	40.64
581.518	40.7
581.858	40.8
582.197	40.91
582.537	41.03
582.877	41.1
583.217	41.21
583.556	41.35
583.896	41.44
584.235	41.52
584.575	41.64
584.914	41.7
585.254	41.82
585.593	41.95
585.933	42.04
586.272	42.14
586.611	42.23
586.95	42.31
587.289	42.41
587.629	42.49
587.968	42.59
588.307	42.67
588.646	42.76
588.985	42.83
589.323	42.91
589.662	43.02
590.001	43.1
590.34	43.24
590.679	43.32
591.017	43.38
591.356	43.47
591.695	43.59
592.033	43.64
592.372	43.73
592.71	43.85
593.048	43.93
593.387	44.04
593.725	44.14
594.063	44.2
594.402	44.32
594.74	44.4
595.078	44.46
595.416	44.54
595.754	44.63
596.092	44.67
596.43	44.75
596.768	44.8
597.106	44.83
597.444	45
597.781	45.08
598.119	45.13
598.457	45.16
598.795	45.29
599.132	45.34
599.47	45.45
599.807	45.55
600.145	45.61
600.482	45.71
600.82	45.78
601.157	45.8
601.494	45.91
601.831	46.01
602.169	46.1
602.506	46.18
602.843	46.24
603.18	46.27
603.517	46.42
603.854	46.53
604.191	46.61
604.528	46.72
604.865	46.79
605.202	46.84
605.538	46.9
605.875	47.01
606.212	47.09
606.548	47.18
606.885	47.31
607.222	47.37
607.558	47.46
607.895	47.54
608.231	47.58
608.567	47.64
608.904	47.73
609.24	47.88
609.576	47.93
609.912	48.03
610.248	48.12
610.585	48.14
610.921	48.16
611.257	48.19
611.593	48.24
611.929	48.33
612.264	48.35
612.6	48.4
612.936	48.35
613.272	48.42
613.608	48.5
613.943	48.56
614.279	48.65
614.614	48.69
614.95	48.78
615.285	48.82
615.621	48.82
615.956	48.91
616.292	49.03
616.627	49.18
616.962	49.22
617.297	49.3
617.632	49.37
617.968	49.46
618.303	49.52
618.638	49.56
618.973	49.65
619.308	49.8
619.643	49.87
619.977	49.89
620.312	49.97
620.647	50.07
620.982	50.13
621.316	50.15
621.651	50.18
621.986	50.3
622.32	50.45
622.655	50.57
622.989	50.64
623.324	50.67
623.658	50.73
623.992	50.77
624.326	50.83
624.661	50.84
624.995	50.99
625.329	51.01
625.663	51.12
625.997	51.16
626.331	51.15
626.665	51.15
626.999	51.3
627.333	51.3
627.667	51.37
628.001	51.45
628.334	51.51
628.668	51.55
629.002	51.62
629.335	51.62
629.669	51.63
630.002	51.74
630.336	51.82
630.669	51.82
631.003	51.98
631.336	52.04
631.669	52.02
632.003	52.08
632.336	52.16
632.669	52.3
633.002	52.29
633.335	52.29
633.668	52.27
634.001	52.31
634.334	52.34
634.667	52.31
635	52.34
635.333	52.44
635.665	52.54
635.998	52.49
636.331	52.52
636.663	52.57
636.996	52.64
637.328	52.76
637.661	52.8
637.993	52.81
638.326	52.88
638.658	52.97
638.99	52.96
639.323	53
639.655	53.14
639.987	53.26
640.319	53.47
640.651	53.57
640.983	53.67
641.315	53.8
641.647	53.92
641.979	53.99
642.311	53.97
642.643	54.15
642.975	54.23
643.306	54.26
643.638	54.23
643.97	54.24
644.301	54.2
644.633	54.28
644.964	54.37
645.296	54.47
645.627	54.53
645.959	54.61
646.29	54.61
646.621	54.57
646.952	54.62
647.284	54.73
647.615	54.77
647.946	54.95
648.277	54.92
648.608	54.97
648.939	54.97
649.27	55.11
649.601	55.17
649.931	55.25
650.262	55.37
650.593	55.45
650.924	55.47
651.254	55.44
651.585	55.44
651.915	55.57
652.246	55.65
652.576	55.66
652.907	55.67
653.237	55.81
653.568	55.81
653.898	55.9
654.228	56.01
654.558	56.06
654.888	56.21
655.219	56.24
655.549	56.19
655.879	56.11
656.209	56.34
656.539	56.36
656.868	56.45
657.198	56.61
657.528	56.73
657.858	56.82
658.188	56.93
658.517	57.02
658.847	57.16
659.176	57.28
659.506	57.42
659.835	57.5
660.165	57.62
660.494	57.72
660.824	57.79
661.153	57.86
661.482	57.91
661.811	57.96
662.14	58.01
662.47	58.02
662.799	58.03
663.128	58.02
663.457	57.97
663.786	57.92
664.114	57.86
664.443	57.85
664.772	57.79
665.101	57.8
665.43	57.82
665.758	57.8
666.087	57.77
666.415	57.72
666.744	57.74
667.072	57.85
667.401	58.05
667.729	58.13
668.058	58.13
668.386	58.21
668.714	58.21
669.042	58.23
669.371	58.38
669.699	58.43
670.027	58.55
670.355	58.65
670.683	58.76
671.011	58.74
671.339	58.77
671.666	58.83
671.994	58.83
672.322	58.91
672.65	58.94
672.977	58.85
673.305	58.83
673.633	58.87
673.96	59.03
674.288	59.12
674.615	59.14
674.943	59.23
675.27	59.32
675.597	59.36
675.924	59.42
676.252	59.46
676.579	59.55
676.906	59.65
677.233	59.68
677.56	59.67
677.887	59.65
678.214	59.7
678.541	59.7
678.868	59.73
679.195	59.82
679.521	59.79
679.848	59.9
680.175	59.91
680.501	60
680.828	60.06
681.154	60.04
681.481	60.02
681.807	60.05
682.134	60.1
682.46	60.08
682.787	60.06
683.113	60.18
683.439	60.16
683.765	60.24
684.091	60.22
684.417	60.27
684.743	60.26
685.069	60.27
685.395	60.28
685.721	60.25
686.047	60.26
686.373	60.34
686.699	60.34
687.024	60.33
687.35	60.37
687.676	60.4
688.001	60.41
688.327	60.45
688.652	60.51
688.978	60.65
689.303	60.81
689.629	60.9
689.954	60.93
690.279	60.92
690.604	60.96
690.93	61
691.255	61.04
691.58	61.09
691.905	61.08
692.23	61.16
692.555	61.12
692.88	60.97
693.204	61.04
693.529	60.95
693.854	60.9
694.179	60.94
694.503	60.93
694.828	60.89
695.153	60.89
695.477	60.97
695.802	61.03
696.126	61.04
696.451	61.15
696.775	61.28
697.099	61.43
697.423	61.56
697.748	61.6
698.072	61.74
698.396	61.87
698.72	62.05
699.044	62.14
699.368	62.19
699.692	62.19
700.016	62.27
700.34	62.17
700.664	62.18
700.987	62.24
701.311	62.25
701.635	62.25
701.958	62.24
702.282	62.22
702.606	62.17
