Data from troilus_ven_HW_orange_right_9_Reflection__1__258.txt Node

Date: Mon Dec 12 16:40:44 EST 2022
User: abbyrobinson
Spectrometer: USB2G8287
Scans to average: 10
Trigger mode: 4
Integration Time (sec): 1.000000E-1
Electric dark correction enabled: true
Boxcar width: 5
XAxis mode: Wavelengths
Number of Pixels in Spectrum: 2048
>>>>>Begin Spectral Data<<<<<
177.272	108.1
177.658	108.76
178.044	113.7
178.43	145.36
178.816	150
179.203	127.79
179.589	93.32
179.975	92.77
180.361	99.54
180.747	91.62
181.133	104.45
181.519	114.87
181.904	108.76
182.29	119.81
182.676	156.23
183.062	141.09
183.447	123.62
183.833	114.06
184.219	122.75
184.604	107.76
184.99	140.55
185.375	178.05
185.761	248.36
186.146	526.36
186.531	-2316
186.917	-747.31
187.302	-120.87
187.687	-86.77
188.073	-68.16
188.458	-61.11
188.843	-56.2
189.228	-56.34
189.613	-86.48
189.998	-61.92
190.383	-76.84
190.768	-103.61
191.153	-78.27
191.538	-77.86
191.923	-54.9
192.307	-73.07
192.692	-69.99
193.077	-80.83
193.461	-94.76
193.846	-71.09
194.231	-91.89
194.615	-86.83
195	-49.95
195.384	-63.92
195.769	-65.19
196.153	-66.1
196.537	-57.99
196.922	-59.22
197.306	-43.18
197.69	-38.36
198.074	-45.31
198.458	-50.39
198.843	-51.86
199.227	-66.47
199.611	-83.17
199.995	-78.58
200.379	-105.73
200.763	-94.1
201.146	-88.21
201.53	-99
201.914	-89.67
202.298	-70.63
202.681	-58.87
203.065	-52.82
203.449	-51.84
203.832	-42.97
204.216	-52.24
204.599	49.07
204.983	51.25
205.366	54.05
205.75	52.93
206.133	47.46
206.516	42.73
206.9	43.66
207.283	39.77
207.666	38.98
208.049	41.94
208.432	41.86
208.815	-61.9
209.198	-94.99
209.581	-115.49
209.964	-96.27
210.347	-101.23
210.73	-88.24
211.113	-91.62
211.496	-62.21
211.879	-69.46
212.261	-86.66
212.644	-79.44
213.027	-82.83
213.409	-78.64
213.792	-81.45
214.174	-93.22
214.557	-66.52
214.939	-82.79
215.322	-75.21
215.704	-87.64
216.086	-78.45
216.469	-59.26
216.851	-76.55
217.233	-87.46
217.615	-95.51
217.997	-75.13
218.379	-54.22
218.761	-56.05
219.143	-25.7
219.525	-24.75
219.907	-18.25
220.289	-15.62
220.671	-21.49
221.053	-19.8
221.435	-20.35
221.816	-20.47
222.198	-25.86
222.58	-32.89
222.961	-36.64
223.343	-56.29
223.724	-55.29
224.106	-65.83
224.487	-70.89
224.869	-65.42
225.25	-67.61
225.631	-70.55
226.013	-55.15
226.394	-51.78
226.775	-52.07
227.156	-56.99
227.537	-53.46
227.919	-54.53
228.3	-45.06
228.681	-41.42
229.062	-45.63
229.442	-42.51
229.823	-35.78
230.204	-36.78
230.585	-35.62
230.966	-30.89
231.347	-28.69
231.727	-25.8
232.108	-21.89
232.488	-20.24
232.869	-19.35
233.25	-16.98
233.63	-14.62
234.01	-14.26
234.391	-13.71
234.771	-10.37
235.152	-9.18
235.532	-8.24
235.912	-5.41
236.292	-5.12
236.672	-4.2
237.053	-2.62
237.433	-2.17
237.813	-2.21
238.193	-1.56
238.573	-0.67
238.953	-0.84
239.333	-1.06
239.712	-0.01
240.092	-0.25
240.472	0.05
240.852	0.53
241.231	1.29
241.611	1.62
241.991	2.23
242.37	2.72
242.75	2.83
243.129	3.07
243.509	3.71
243.888	3.74
244.267	3.85
244.647	4.1
245.026	4.02
245.405	3.72
245.784	3.75
246.164	3.57
246.543	3.66
246.922	3.56
247.301	3.61
247.68	3.58
248.059	3.79
248.438	3.84
248.817	3.68
249.195	3.68
249.574	3.83
249.953	4.03
250.332	4.27
250.71	4.25
251.089	4.55
251.468	4.52
251.846	4.52
252.225	4.52
252.603	4.54
252.982	4.79
253.36	4.78
253.738	4.79
254.117	4.8
254.495	4.69
254.873	4.7
255.251	4.61
255.63	4.69
256.008	4.74
256.386	4.66
256.764	4.57
257.142	4.51
257.52	4.43
257.898	4.36
258.276	4.33
258.653	4.37
259.031	4.39
259.409	4.34
259.787	4.33
260.164	4.35
260.542	4.35
260.92	4.42
261.297	4.39
261.675	4.45
262.052	4.47
262.43	4.49
262.807	4.53
263.184	4.42
263.562	4.45
263.939	4.48
264.316	4.38
264.693	4.33
265.07	4.34
265.448	4.26
265.825	4.25
266.202	4.16
266.579	4.15
266.956	4.11
267.333	4.14
267.709	4.06
268.086	3.94
268.463	3.96
268.84	3.99
269.216	3.87
269.593	3.81
269.97	3.74
270.346	3.75
270.723	3.75
271.099	3.69
271.476	3.66
271.852	3.64
272.229	3.68
272.605	3.65
272.981	3.61
273.358	3.61
273.734	3.57
274.11	3.58
274.486	3.64
274.862	3.62
275.238	3.62
275.614	3.55
275.99	3.44
276.366	3.4
276.742	3.29
277.118	3.22
277.494	3.31
277.87	3.35
278.245	3.38
278.621	3.32
278.997	3.27
279.372	3.19
279.748	3.19
280.123	3.23
280.499	3.18
280.874	3.23
281.25	3.29
281.625	3.2
282	3.22
282.376	3.06
282.751	2.94
283.126	2.86
283.501	2.91
283.876	2.96
284.252	2.96
284.627	2.9
285.002	2.87
285.377	2.76
285.751	2.73
286.126	2.68
286.501	2.77
286.876	2.78
287.251	2.82
287.625	2.76
288	2.65
288.375	2.59
288.749	2.59
289.124	2.56
289.498	2.55
289.873	2.46
290.247	2.41
290.622	2.32
290.996	2.34
291.37	2.21
291.745	2.2
292.119	2.25
292.493	2.35
292.867	2.38
293.241	2.36
293.616	2.39
293.99	2.45
294.364	2.5
294.737	2.47
295.111	2.4
295.485	2.45
295.859	2.47
296.233	2.41
296.607	2.3
296.98	2.25
297.354	2.25
297.728	2.25
298.101	2.2
298.475	2.14
298.848	2.15
299.222	2.26
299.595	2.19
299.968	2.14
300.342	2.1
300.715	2.05
301.088	2.02
301.462	1.89
301.835	1.79
302.208	1.82
302.581	1.83
302.954	1.89
303.327	1.83
303.7	1.83
304.073	1.8
304.446	1.82
304.819	1.89
305.192	1.9
305.564	1.99
305.937	2.04
306.31	2.02
306.682	2
307.055	1.91
307.428	1.87
307.8	1.82
308.173	1.81
308.545	1.81
308.917	1.63
309.29	1.54
309.662	1.49
310.034	1.56
310.407	1.49
310.779	1.42
311.151	1.52
311.523	1.47
311.895	1.52
312.267	1.49
312.639	1.45
313.011	1.59
313.383	1.62
313.755	1.65
314.127	1.5
314.498	1.48
314.87	1.51
315.242	1.45
315.614	1.46
315.985	1.35
316.357	1.42
316.728	1.39
317.1	1.26
317.471	1.21
317.843	1.24
318.214	1.26
318.585	1.31
318.957	1.26
319.328	1.25
319.699	1.26
320.07	1.35
320.441	1.39
320.813	1.46
321.184	1.58
321.555	1.68
321.926	1.61
322.297	1.62
322.667	1.58
323.038	1.61
323.409	1.71
323.78	1.68
324.151	1.76
324.521	1.67
324.892	1.66
325.262	1.64
325.633	1.6
326.004	1.7
326.374	1.81
326.744	1.81
327.115	1.85
327.485	1.7
327.855	1.72
328.226	1.66
328.596	1.67
328.966	1.68
329.336	1.65
329.706	1.72
330.076	1.54
330.447	1.5
330.816	1.51
331.186	1.5
331.556	1.57
331.926	1.57
332.296	1.57
332.666	1.63
333.036	1.54
333.405	1.66
333.775	1.59
334.144	1.65
334.514	1.49
334.884	1.37
335.253	1.31
335.623	1.3
335.992	1.31
336.361	1.31
336.731	1.17
337.1	1.14
337.469	1.07
337.838	0.97
338.208	0.99
338.577	1.06
338.946	1.12
339.315	1.22
339.684	1.19
340.053	1.21
340.422	1.21
340.79	1.21
341.159	1.23
341.528	1.17
341.897	1.23
342.266	1.21
342.634	1.24
343.003	1.23
343.371	1.09
343.74	1.05
344.108	0.99
344.477	0.92
344.845	0.97
345.214	0.93
345.582	1.02
345.95	1.03
346.319	0.97
346.687	0.94
347.055	1.05
347.423	1.1
347.791	1.06
348.159	1.04
348.527	1.06
348.895	1.07
349.263	1.13
349.631	1.12
349.999	1.14
350.367	1.2
350.734	1.24
351.102	1.18
351.47	1.22
351.837	1.32
352.205	1.37
352.573	1.37
352.94	1.37
353.308	1.36
353.675	1.36
354.042	1.39
354.41	1.37
354.777	1.35
355.144	1.34
355.511	1.32
355.879	1.24
356.246	1.23
356.613	1.23
356.98	1.26
357.347	1.32
357.714	1.23
358.081	1.21
358.448	1.16
358.815	1.12
359.181	1.15
359.548	1.17
359.915	1.19
360.282	1.25
360.648	1.23
361.015	1.21
361.381	1.23
361.748	1.31
362.114	1.3
362.481	1.37
362.847	1.38
363.214	1.34
363.58	1.21
363.946	1.25
364.312	1.18
364.678	1.18
365.045	1.18
365.411	1.17
365.777	1.09
366.143	1.13
366.509	1.08
366.875	1.13
367.241	1.16
367.606	1.21
367.972	1.11
368.338	1.05
368.704	1.09
369.069	1.11
369.435	1.12
369.801	1.09
370.166	1.06
370.532	1.11
370.897	1.05
371.263	1.02
371.628	1.1
371.993	1.18
372.359	1.3
372.724	1.24
373.089	1.16
373.454	1.16
373.82	1.21
374.185	1.21
374.55	1.19
374.915	1.24
375.28	1.24
375.645	1.19
376.01	1.22
376.374	1.21
376.739	1.18
377.104	1.25
377.469	1.18
377.833	1.16
378.198	1.15
378.563	1.2
378.927	1.23
379.292	1.24
379.656	1.28
380.021	1.12
380.385	1.06
380.749	1.09
381.114	1.15
381.478	1.19
381.842	1.26
382.206	1.24
382.571	1.16
382.935	1.11
383.299	1.11
383.663	1.12
384.027	1.23
384.391	1.26
384.755	1.25
385.118	1.19
385.482	1.14
385.846	1.11
386.21	1.08
386.573	1.09
386.937	1.08
387.301	1.09
387.664	1.03
388.028	1.05
388.391	1.09
388.755	1.12
389.118	1.06
389.481	1.09
389.845	1.1
390.208	1.18
390.571	1.21
390.934	1.26
391.298	1.29
391.661	1.36
392.024	1.37
392.387	1.35
392.75	1.33
393.113	1.37
393.476	1.42
393.838	1.44
394.201	1.4
394.564	1.4
394.927	1.34
395.289	1.32
395.652	1.29
396.015	1.29
396.377	1.31
396.74	1.33
397.102	1.36
397.465	1.34
397.827	1.36
398.189	1.38
398.552	1.41
398.914	1.43
399.276	1.43
399.638	1.47
400	1.46
400.363	1.46
400.725	1.46
401.087	1.38
401.449	1.37
401.81	1.37
402.172	1.46
402.534	1.39
402.896	1.44
403.258	1.5
403.619	1.54
403.981	1.55
404.343	1.54
404.704	1.54
405.066	1.61
405.427	1.61
405.789	1.59
406.15	1.52
406.512	1.53
406.873	1.53
407.234	1.49
407.596	1.41
407.957	1.37
408.318	1.4
408.679	1.4
409.04	1.45
409.401	1.5
409.762	1.44
410.123	1.48
410.484	1.5
410.845	1.48
411.206	1.51
411.567	1.55
411.927	1.59
412.288	1.56
412.649	1.97
413.009	2.04
413.37	2
413.731	2.04
414.091	2.02
414.452	2.06
414.812	2.06
415.172	2.02
415.533	2
415.893	1.98
416.253	2.01
416.613	1.64
416.974	1.55
417.334	1.55
417.694	1.6
418.054	1.59
418.414	1.59
418.774	1.61
419.134	1.64
419.494	1.62
419.853	1.62
420.213	1.63
420.573	1.63
420.933	1.62
421.292	1.64
421.652	1.61
422.011	1.67
422.371	1.63
422.73	1.71
423.09	1.72
423.449	1.67
423.809	1.71
424.168	1.75
424.527	1.75
424.887	1.75
425.246	1.74
425.605	1.73
425.964	1.69
426.323	1.76
426.682	1.7
427.041	1.7
427.4	1.8
427.759	1.86
428.118	1.87
428.477	1.87
428.835	1.93
429.194	1.99
429.553	2.04
429.911	2.05
430.27	2.03
430.629	2.1
430.987	2.11
431.346	2.04
431.704	1.99
432.062	1.97
432.421	1.99
432.779	2.01
433.137	1.96
433.496	1.97
433.854	1.98
434.212	1.97
434.57	1.96
434.928	1.94
435.286	2.01
435.644	2.08
436.002	2.1
436.36	2.1
436.718	2.02
437.075	2.12
437.433	2.11
437.791	2.09
438.149	2.06
438.506	2.02
438.864	2.07
439.221	2.09
439.579	2.07
439.936	2.1
440.294	2.08
440.651	2.13
441.009	2.1
441.366	2.1
441.723	2.16
442.08	2.23
442.437	2.27
442.795	2.25
443.152	2.26
443.509	2.27
443.866	2.24
444.223	2.28
444.58	2.3
444.936	2.37
445.293	2.39
445.65	2.41
446.007	2.44
446.363	2.46
446.72	2.54
447.077	2.51
447.433	2.56
447.79	2.62
448.146	2.6
448.503	2.65
448.859	2.64
449.215	2.71
449.572	2.77
449.928	2.76
450.284	2.8
450.641	2.77
450.997	2.87
451.353	2.8
451.709	2.81
452.065	2.86
452.421	2.84
452.777	2.81
453.133	2.81
453.488	2.75
453.844	2.84
454.2	2.83
454.556	2.88
454.911	2.88
455.267	2.97
455.623	2.97
455.978	3.01
456.334	3.08
456.689	3.14
457.045	3.09
457.4	3.18
457.755	3.12
458.111	3.16
458.466	3.13
458.821	3.11
459.176	3.09
459.531	3.14
459.886	3.12
460.242	3.05
460.597	3.08
460.951	3.12
461.306	3.12
461.661	3.13
462.016	3.17
462.371	3.2
462.726	3.29
463.08	3.39
463.435	3.39
463.79	3.42
464.144	3.48
464.499	3.45
464.853	3.48
465.208	3.52
465.562	3.6
465.916	3.58
466.271	3.57
466.625	3.62
466.979	3.66
467.333	3.69
467.688	3.75
468.042	3.8
468.396	3.85
468.75	3.86
469.104	3.88
469.458	3.85
469.811	3.96
470.165	4
470.519	4
470.873	3.99
471.227	3.99
471.58	4.01
471.934	3.99
472.287	4.02
472.641	4.08
472.995	4.11
473.348	4.14
473.701	4.11
474.055	4.08
474.408	4.08
474.761	4.1
475.115	4.1
475.468	4.07
475.821	4.14
476.174	4.18
476.527	4.28
476.88	4.28
477.233	4.32
477.586	4.35
477.939	4.43
478.292	4.47
478.645	4.41
478.998	4.44
479.35	4.5
479.703	4.49
480.056	4.49
480.408	4.46
480.761	4.52
481.113	4.54
481.466	4.59
481.818	4.62
482.171	4.69
482.523	4.79
482.875	4.9
483.228	4.97
483.58	5.01
483.932	5.07
484.284	5.14
484.636	5.16
484.988	5.19
485.34	5.29
485.692	5.33
486.044	5.34
486.396	5.37
486.748	5.35
487.1	5.39
487.451	5.46
487.803	5.49
488.155	5.48
488.506	5.53
488.858	5.53
489.209	5.48
489.561	5.53
489.912	5.6
490.264	5.61
490.615	5.68
490.966	5.71
491.318	5.74
491.669	5.75
492.02	5.78
492.371	5.76
492.722	5.83
493.073	5.9
493.424	5.94
493.775	5.93
494.126	6.02
494.477	6.02
494.828	6.03
495.179	6.09
495.53	6.13
495.88	6.21
496.231	6.27
496.582	6.4
496.932	6.45
497.283	6.47
497.633	6.5
497.984	6.51
498.334	6.58
498.684	6.65
499.035	6.66
499.385	6.75
499.735	6.72
500.086	6.76
500.436	6.73
500.786	6.76
501.136	6.79
501.486	6.86
501.836	6.91
502.186	6.95
502.536	7
502.886	7.06
503.235	7.11
503.585	7.2
503.935	7.24
504.285	7.3
504.634	7.42
504.984	7.47
505.333	7.55
505.683	7.68
506.032	7.75
506.382	7.78
506.731	7.8
507.08	7.87
507.43	7.89
507.779	7.95
508.128	8.03
508.477	8.03
508.826	8.07
509.176	8.14
509.525	8.17
509.874	8.25
510.222	8.35
510.571	8.47
510.92	8.48
511.269	8.59
511.618	8.66
511.967	8.71
512.315	8.77
512.664	8.82
513.012	8.88
513.361	8.9
513.71	8.9
514.058	8.99
514.406	9.03
514.755	9.09
515.103	9.12
515.451	9.2
515.8	9.3
516.148	9.36
516.496	9.46
516.844	9.52
517.192	9.57
517.54	9.63
517.888	9.73
518.236	9.83
518.584	9.94
518.932	10.07
519.28	10.11
519.628	10.16
519.975	10.26
520.323	10.37
520.671	10.43
521.018	10.47
521.366	10.53
521.713	10.55
522.061	10.59
522.408	10.7
522.756	10.76
523.103	10.86
523.45	10.99
523.798	11.03
524.145	11.06
524.492	11.14
524.839	11.3
525.186	11.51
525.533	11.54
525.88	11.57
526.227	11.64
526.574	11.76
526.921	11.86
527.268	11.9
527.615	12.02
527.961	12.13
528.308	12.27
528.655	12.32
529.001	12.37
529.348	12.49
529.694	12.65
530.041	12.78
530.387	12.79
530.734	12.84
531.08	12.88
531.426	12.96
531.773	13.08
532.119	13.17
532.465	13.26
532.811	13.32
533.157	13.43
533.503	13.51
533.849	13.58
534.195	13.74
534.541	13.83
534.887	13.99
535.233	14.08
535.579	14.14
535.924	14.17
536.27	14.22
536.616	14.24
536.961	14.36
537.307	14.43
537.652	14.48
537.998	14.53
538.343	14.66
538.689	14.74
539.034	14.86
539.379	14.95
539.725	15.09
540.07	15.26
540.415	15.41
540.76	15.49
541.105	15.6
541.45	15.77
541.795	15.92
542.14	15.99
542.485	16.1
542.83	16.22
543.175	16.3
543.519	16.37
543.864	16.45
544.209	16.57
544.554	16.68
544.898	16.77
545.243	16.79
545.587	16.83
545.932	16.92
546.276	16.99
546.621	17.02
546.965	17.13
547.309	17.23
547.653	17.3
547.998	17.42
548.342	17.5
548.686	17.61
549.03	17.72
549.374	17.82
549.718	17.93
550.062	18
550.406	18.06
550.75	18.12
551.094	18.22
551.437	18.35
551.781	18.37
552.125	18.48
552.468	18.64
552.812	18.75
553.156	18.86
553.499	18.94
553.843	19.05
554.186	19.2
554.529	19.31
554.873	19.41
555.216	19.48
555.559	19.61
555.902	19.7
556.246	19.74
556.589	19.82
556.932	19.93
557.275	19.99
557.618	20.13
557.961	20.28
558.304	20.37
558.646	20.49
558.989	20.57
559.332	20.66
559.675	20.68
560.017	20.78
560.36	20.82
560.703	20.92
561.045	21.03
561.388	21.09
561.73	21.14
562.073	21.25
562.415	21.31
562.757	21.39
563.1	21.48
563.442	21.65
563.784	21.7
564.126	21.8
564.468	21.87
564.81	21.97
565.152	22.08
565.494	22.13
565.836	22.19
566.178	22.27
566.52	22.34
566.862	22.46
567.204	22.54
567.545	22.59
567.887	22.73
568.229	22.79
568.57	22.88
568.912	22.99
569.253	23.13
569.595	23.25
569.936	23.33
570.277	23.49
570.619	23.58
570.96	23.68
571.301	23.85
571.642	23.99
571.984	24.07
572.325	24.18
572.666	24.25
573.007	24.32
573.348	24.4
573.689	24.54
574.03	24.59
574.37	24.67
574.711	24.74
575.052	24.81
575.393	24.91
575.733	25
576.074	25.1
576.414	25.18
576.755	25.29
577.095	25.39
577.436	25.47
577.776	25.6
578.117	25.67
578.457	25.76
578.797	25.86
579.137	25.92
579.478	26.01
579.818	26.07
580.158	26.16
580.498	26.23
580.838	26.3
581.178	26.38
581.518	26.45
581.858	26.57
582.197	26.66
582.537	26.73
582.877	26.78
583.217	26.89
583.556	26.99
583.896	27.07
584.235	27.16
584.575	27.26
584.914	27.33
585.254	27.38
585.593	27.51
585.933	27.59
586.272	27.67
586.611	27.8
586.95	27.9
587.289	28
587.629	28.12
587.968	28.21
588.307	28.3
588.646	28.4
588.985	28.5
589.323	28.55
589.662	28.65
590.001	28.75
590.34	28.8
590.679	28.85
591.017	28.88
591.356	28.92
591.695	28.99
592.033	29.06
592.372	29.17
592.71	29.24
593.048	29.3
593.387	29.34
593.725	29.41
594.063	29.55
594.402	29.68
594.74	29.81
595.078	29.93
595.416	30.04
595.754	30.16
596.092	30.29
596.43	30.37
596.768	30.5
597.106	30.6
597.444	30.74
597.781	30.84
598.119	30.91
598.457	31.04
598.795	31.12
599.132	31.2
599.47	31.26
599.807	31.31
600.145	31.44
600.482	31.5
600.82	31.61
601.157	31.66
601.494	31.7
601.831	31.76
602.169	31.76
602.506	31.88
602.843	31.98
603.18	32.09
603.517	32.14
603.854	32.2
604.191	32.31
604.528	32.4
604.865	32.51
605.202	32.61
605.538	32.72
605.875	32.82
606.212	32.84
606.548	32.88
606.885	32.95
607.222	33.04
607.558	33.15
607.895	33.17
608.231	33.2
608.567	33.26
608.904	33.31
609.24	33.38
609.576	33.49
609.912	33.59
610.248	33.7
610.585	33.76
610.921	33.84
611.257	33.9
611.593	33.99
611.929	34.09
612.264	34.18
612.6	34.29
612.936	34.36
613.272	34.38
613.608	34.48
613.943	34.58
614.279	34.67
614.614	34.74
614.95	34.8
615.285	34.93
615.621	35.03
615.956	35.12
616.292	35.21
616.627	35.29
616.962	35.42
617.297	35.49
617.632	35.55
617.968	35.61
618.303	35.73
618.638	35.78
618.973	35.86
619.308	35.95
619.643	35.97
619.977	36.01
620.312	36.13
620.647	36.24
620.982	36.27
621.316	36.3
621.651	36.46
621.986	36.51
622.32	36.67
622.655	36.72
622.989	36.74
623.324	36.84
623.658	36.94
623.992	36.95
624.326	36.99
624.661	37.12
624.995	37.26
625.329	37.27
625.663	37.32
625.997	37.39
626.331	37.42
626.665	37.46
626.999	37.52
627.333	37.59
627.667	37.72
628.001	37.8
628.334	37.8
628.668	37.89
629.002	37.92
629.335	38.03
629.669	38.03
630.002	38.09
630.336	38.23
630.669	38.32
631.003	38.39
631.336	38.41
631.669	38.44
632.003	38.54
632.336	38.58
632.669	38.64
633.002	38.73
633.335	38.86
633.668	38.94
634.001	38.97
634.334	39.05
634.667	39.04
635	39.19
635.333	39.3
635.665	39.41
635.998	39.42
636.331	39.45
636.663	39.45
636.996	39.5
637.328	39.58
637.661	39.69
637.993	39.72
638.326	39.79
638.658	39.69
638.99	39.71
639.323	39.7
639.655	39.86
639.987	40
640.319	40.11
640.651	40.18
640.983	40.3
641.315	40.31
641.647	40.41
641.979	40.48
642.311	40.71
642.643	40.82
642.975	40.9
643.306	40.87
643.638	40.96
643.97	40.98
644.301	41.08
644.633	41.14
644.964	41.26
645.296	41.3
645.627	41.34
645.959	41.37
646.29	41.4
646.621	41.47
646.952	41.57
647.284	41.6
647.615	41.69
647.946	41.68
648.277	41.76
648.608	41.78
648.939	41.79
649.27	41.92
649.601	41.96
649.931	42.01
650.262	42.11
650.593	42.34
650.924	42.45
651.254	42.6
651.585	42.64
651.915	42.73
652.246	42.89
652.576	43.07
652.907	43.18
653.237	43.27
653.568	43.5
653.898	43.52
654.228	43.46
654.558	43.48
654.888	43.52
655.219	43.77
655.549	44.03
655.879	44.4
656.209	44.75
656.539	45.05
656.868	45.28
657.198	45.41
657.528	45.62
657.858	45.78
658.188	45.9
658.517	46
658.847	46.07
659.176	46.07
659.506	46.14
659.835	46.18
660.165	46.19
660.494	46.21
660.824	46.25
661.153	46.26
661.482	46.23
661.811	46.22
662.14	46.24
662.47	46.23
662.799	46.29
663.128	46.21
663.457	46.24
663.786	46.25
664.114	46.23
664.443	46.18
664.772	46.1
665.101	46.11
665.43	46.15
665.758	46.02
666.087	46.01
666.415	45.98
666.744	46.06
667.072	45.98
667.401	46.09
667.729	46.21
668.058	46.3
668.386	46.42
668.714	46.51
669.042	46.57
669.371	46.66
669.699	46.67
670.027	46.7
670.355	46.67
670.683	46.68
671.011	46.7
671.339	46.69
671.666	46.8
671.994	46.84
672.322	46.82
672.65	46.81
672.977	46.93
673.305	47.06
673.633	47.09
673.96	47.21
674.288	47.29
674.615	47.39
674.943	47.53
675.27	47.51
675.597	47.68
675.924	47.88
676.252	48.06
676.579	48.05
676.906	48.2
677.233	48.28
677.56	48.26
677.887	48.27
678.214	48.26
678.541	48.23
678.868	48.31
679.195	48.32
679.521	48.31
679.848	48.29
680.175	48.44
680.501	48.45
680.828	48.68
681.154	48.76
681.481	48.82
681.807	48.93
682.134	49.05
682.46	49.04
682.787	49.1
683.113	49.17
683.439	49.23
683.765	49.27
684.091	49.25
684.417	49.24
684.743	49.35
685.069	49.38
685.395	49.48
685.721	49.57
686.047	49.75
686.373	49.76
686.699	49.79
687.024	49.87
687.35	49.92
687.676	49.99
688.001	50.12
688.327	50.18
688.652	50.36
688.978	50.45
689.303	50.56
689.629	50.62
689.954	50.6
690.279	50.62
690.604	50.73
690.93	50.76
691.255	50.93
691.58	50.91
691.905	50.86
692.23	50.92
692.555	50.89
692.88	50.96
693.204	50.97
693.529	51.13
693.854	51.28
694.179	51.29
694.503	51.44
694.828	51.4
695.153	51.41
695.477	51.55
695.802	51.46
696.126	51.54
696.451	51.51
696.775	51.49
697.099	51.62
697.423	51.65
697.748	51.66
698.072	51.69
698.396	51.76
698.72	51.77
699.044	51.95
699.368	52.17
699.692	52.28
700.016	52.24
700.34	52.41
700.664	52.41
